Frequency (Hz),Power (dB),44100.0000,2048,0,2.0000,0,L+R
0.00,-30.87
21.53,-36.89
43.07,-86.35
64.60,-79.01
86.13,-67.60
107.67,-35.25
129.20,-28.37
150.73,-33.45
172.27,-64.94
193.80,-75.96
215.33,-66.51
236.87,-39.62
258.40,-31.73
279.93,-35.95
301.46,-60.25
323.00,-72.21
344.53,-68.30
366.06,-45.02
387.60,-36.03
409.13,-39.00
430.66,-58.61
452.20,-72.37
473.73,-70.10
495.26,-48.45
516.80,-38.53
538.33,-40.41
559.86,-56.66
581.40,-72.76
602.93,-70.57
624.46,-49.31
646.00,-38.69
667.53,-39.70
689.06,-53.53
710.60,-71.19
732.13,-72.84
753.66,-52.21
775.20,-41.73
796.73,-42.44
818.26,-54.63
839.79,-74.71
861.33,-81.12
882.86,-62.52
904.39,-51.58
925.93,-51.42
947.46,-61.82
968.99,-81.43
990.53,-76.43
1012.06,-56.66
1033.59,-44.39
1055.13,-43.22
1076.66,-52.44
1098.19,-73.07
1119.73,-79.16
1141.26,-61.82
1162.79,-48.45
1184.33,-46.42
1205.86,-54.86
1227.39,-76.59
1248.93,-84.48
1270.46,-68.22
1291.99,-54.32
1313.53,-51.66
1335.06,-58.61
1356.59,-79.09
1378.13,-89.64
1399.66,-73.38
1421.19,-59.32
1442.72,-56.50
1464.26,-62.60
1485.79,-82.37
1507.32,-86.74
1528.86,-69.63
1550.39,-55.02
1571.92,-51.89
1593.46,-57.13
1614.99,-74.71
1636.52,-83.31
1658.06,-67.44
1679.59,-52.21
1701.12,-48.53
1722.66,-52.67
1744.19,-69.01
1765.72,-80.57
1787.26,-67.29
1808.79,-50.72
1830.32,-46.03
1851.86,-49.47
1873.39,-64.63
1894.92,-79.16
1916.46,-67.29
1937.99,-49.94
1959.52,-45.33
1981.05,-47.99
2002.59,-61.11
2024.12,-78.31
2045.65,-69.40
2067.19,-51.11
2088.72,-45.88
2110.25,-47.75
2131.79,-59.39
2153.32,-77.99
2174.85,-71.90
2196.39,-52.36
2217.92,-46.74
2239.45,-48.30
2260.99,-59.00
2282.52,-78.85
2304.05,-75.80
2325.59,-55.10
2347.12,-48.69
2368.65,-49.78
2390.19,-59.63
2411.72,-80.57
2433.25,-79.71
2454.79,-58.22
2476.32,-50.72
2497.85,-51.42
2519.38,-60.57
2540.92,-81.74
2562.45,-83.23
2583.98,-62.29
2605.52,-53.53
2627.05,-53.38
2648.58,-61.97
2670.12,-83.07
2691.65,-86.90
2713.18,-65.96
2734.72,-56.42
2756.25,-56.11
2777.78,-64.16
2799.32,-85.10
2820.85,-89.32
2842.38,-70.57
2863.92,-59.94
2885.45,-58.77
2906.98,-66.11
2928.52,-85.73
2950.05,-93.00
2971.58,-74.32
2993.12,-62.52
3014.65,-60.41
3036.18,-67.37
3057.71,-86.59
3079.25,-94.72
3100.78,-77.45
3122.31,-64.40
3143.85,-61.74
3165.38,-68.07
3186.91,-86.28
3208.45,-95.65
3229.98,-78.93
3251.51,-66.51
3273.05,-63.85
3294.58,-68.77
3316.11,-84.01
3337.65,-97.29
3359.18,-80.81
3380.71,-68.15
3402.25,-64.47
3423.78,-68.46
3445.31,-82.06
3466.85,-99.01
3488.38,-83.15
3509.91,-70.65
3531.45,-67.05
3552.98,-70.65
3574.51,-82.06
3596.04,-100.34
3617.58,-86.04
3639.11,-73.85
3660.64,-70.18
3682.18,-71.98
3703.71,-81.90
3725.24,-100.65
3746.78,-86.74
3768.31,-74.24
3789.84,-70.57
3811.38,-71.74
3832.91,-80.57
3854.44,-99.25
3875.98,-88.23
3897.51,-75.57
3919.04,-72.37
3940.58,-72.99
3962.11,-79.79
3983.64,-97.76
4005.18,-89.40
4026.71,-76.90
4048.24,-73.85
4069.78,-74.32
4091.31,-79.71
4112.84,-96.51
4134.38,-92.37
4155.91,-78.85
4177.44,-74.55
4198.97,-75.18
4220.51,-80.65
4242.04,-96.43
4263.57,-94.72
4285.11,-80.81
4306.64,-76.82
4328.17,-76.59
4349.71,-81.12
4371.24,-96.28
4392.77,-96.28
4414.31,-82.29
4435.84,-77.99
4457.37,-78.15
4478.91,-81.82
4500.44,-94.79
4521.97,-96.36
4543.51,-82.92
4565.04,-78.54
4586.57,-78.38
4608.11,-80.81
4629.64,-92.06
4651.17,-97.68
4672.71,-83.62
4694.24,-78.85
4715.77,-78.54
4737.30,-80.65
4758.84,-90.96
4780.37,-98.94
4801.90,-85.03
4823.44,-79.16
4844.97,-77.91
4866.50,-80.81
4888.04,-90.18
4909.57,-101.20
4931.10,-87.06
4952.64,-81.82
4974.17,-81.43
4995.70,-82.29
5017.24,-90.18
5038.77,-102.76
5060.30,-88.70
5081.84,-82.76
5103.37,-82.60
5124.90,-83.70
5146.44,-90.50
5167.97,-103.78
5189.50,-90.18
5211.04,-83.70
5232.57,-83.38
5254.10,-83.78
5275.63,-90.11
5297.17,-104.48
5318.70,-91.43
5340.23,-83.85
5361.77,-82.99
5383.30,-83.62
5404.83,-89.09
5426.37,-103.39
5447.90,-92.76
5469.43,-84.71
5490.97,-82.99
5512.50,-83.62
5534.03,-89.17
5555.57,-103.08
5577.10,-95.26
5598.63,-86.43
5620.17,-84.71
5641.70,-85.03
5663.23,-89.71
5684.77,-103.23
5706.30,-97.37
5727.83,-88.31
5749.37,-87.14
5770.90,-87.14
5792.43,-90.81
5813.96,-102.92
5835.50,-98.86
5857.03,-89.95
5878.56,-88.62
5900.10,-88.93
5921.63,-91.90
5943.16,-102.53
5964.70,-100.34
5986.23,-91.51
6007.76,-89.79
6029.30,-90.11
6050.83,-92.37
6072.36,-101.98
6093.90,-101.75
6115.43,-92.61
6136.96,-89.95
6158.50,-90.03
6180.03,-92.45
6201.56,-101.12
6223.10,-102.61
6244.63,-93.54
6266.16,-90.34
6287.70,-91.36
6309.23,-92.37
6330.76,-100.19
6352.29,-103.47
6373.83,-94.25
6395.36,-91.82
6416.89,-92.06
6438.43,-92.53
6459.96,-99.72
6481.49,-103.86
6503.03,-95.18
6524.56,-92.61
6546.09,-93.07
6567.63,-93.31
6589.16,-99.40
6610.69,-104.17
6632.23,-96.36
6653.76,-93.39
6675.29,-94.25
6696.83,-94.01
6718.36,-99.40
6739.89,-104.64
6761.43,-97.14
6782.96,-93.62
6804.49,-94.32
6826.03,-94.72
6847.56,-99.09
6869.09,-104.87
6890.63,-98.08
6912.16,-94.72
6933.69,-94.79
6955.22,-94.87
6976.76,-98.47
6998.29,-104.48
7019.82,-98.78
7041.36,-95.34
7062.89,-95.58
7084.42,-95.03
7105.96,-98.15
7127.49,-104.41
7149.02,-99.56
7170.56,-95.81
7192.09,-96.51
7213.62,-95.81
7235.16,-97.92
7256.69,-104.09
7278.22,-100.58
7299.76,-96.36
7321.29,-96.90
7342.82,-96.67
7364.36,-98.00
7385.89,-103.78
7407.42,-101.20
7428.96,-96.59
7450.49,-96.36
7472.02,-96.67
7493.55,-98.15
7515.09,-103.78
7536.62,-101.98
7558.15,-97.22
7579.69,-96.75
7601.22,-97.29
7622.75,-98.23
7644.29,-103.70
7665.82,-102.53
7687.35,-97.84
7708.89,-97.14
7730.42,-97.14
7751.95,-98.31
7773.49,-103.23
7795.02,-103.16
7816.55,-98.31
7838.09,-98.86
7859.62,-98.86
7881.15,-98.15
7902.69,-102.69
7924.22,-103.70
7945.75,-99.01
7967.29,-99.17
7988.82,-99.17
8010.35,-98.78
8031.88,-102.84
8053.42,-103.86
8074.95,-99.56
8096.48,-99.33
8118.02,-99.72
8139.55,-99.01
8161.08,-102.37
8182.62,-103.78
8204.15,-99.95
8225.68,-99.33
8247.22,-100.26
8268.75,-99.56
8290.28,-102.61
8311.82,-103.94
8333.35,-100.65
8354.88,-99.87
8376.42,-99.87
8397.95,-100.11
8419.48,-102.22
8441.02,-104.09
8462.55,-101.12
8484.08,-100.81
8505.62,-102.06
8527.15,-100.19
8548.68,-102.14
8570.21,-104.09
8591.75,-101.51
8613.28,-100.89
8634.81,-101.98
8656.35,-100.58
8677.88,-101.90
8699.41,-103.94
8720.95,-101.98
8742.48,-100.89
8764.01,-101.59
8785.55,-101.05
8807.08,-101.75
8828.61,-103.86
8850.15,-102.45
8871.68,-101.36
8893.21,-102.22
8914.75,-101.98
8936.28,-102.22
8957.81,-104.17
8979.35,-103.08
9000.88,-101.75
9022.41,-101.98
9043.95,-101.75
9065.48,-102.22
9087.01,-104.17
9108.54,-103.23
9130.08,-102.06
9151.61,-103.78
9173.14,-103.16
9194.68,-102.14
9216.21,-103.94
9237.74,-103.86
9259.28,-102.06
9280.81,-103.55
9302.34,-103.00
9323.88,-102.14
9345.41,-103.94
9366.94,-104.01
9388.48,-102.37
9410.01,-103.39
9431.54,-103.00
9453.08,-102.53
9474.61,-104.41
9496.14,-104.25
9517.68,-102.84
9539.21,-104.09
9560.74,-104.72
9582.28,-103.00
9603.81,-104.56
9625.34,-104.64
9646.88,-103.31
9668.41,-103.86
9689.94,-103.55
9711.47,-103.00
9733.01,-104.48
9754.54,-104.64
9776.07,-103.39
9797.61,-105.19
9819.14,-105.26
9840.67,-103.70
9862.21,-104.48
9883.74,-104.72
9905.27,-103.70
9926.81,-104.95
9948.34,-105.11
9969.87,-103.86
9991.41,-104.72
10012.94,-104.87
10034.47,-104.17
10056.01,-104.87
10077.54,-105.50
10099.07,-104.09
10120.61,-104.80
10142.14,-104.80
10163.67,-104.56
10185.21,-104.87
10206.74,-105.73
10228.27,-104.80
10249.80,-104.72
10271.34,-104.95
10292.87,-104.87
10314.40,-105.26
10335.94,-105.19
10357.47,-104.87
10379.00,-104.87
10400.54,-104.87
10422.07,-105.03
10443.60,-105.81
10465.14,-107.37
10486.67,-105.97
10508.20,-105.19
10529.74,-104.95
10551.27,-105.03
10572.80,-105.81
10594.34,-107.22
10615.87,-106.05
10637.40,-105.03
10658.94,-105.11
10680.47,-105.66
10702.00,-105.73
10723.54,-106.83
10745.07,-105.97
10766.60,-105.42
10788.13,-105.50
10809.67,-105.97
10831.20,-106.12
10852.73,-107.61
10874.27,-107.14
10895.80,-105.66
10917.33,-105.42
10938.87,-106.12
10960.40,-106.36
10981.93,-105.97
11003.47,-106.36
11025.00,-106.05
11046.53,-105.97
11068.07,-106.05
11089.60,-106.28
11111.13,-106.98
11132.67,-107.69
11154.20,-106.12
11175.73,-105.81
11197.27,-106.59
11218.80,-106.59
11240.33,-107.92
11261.87,-107.61
11283.40,-106.59
11304.93,-106.52
11326.46,-106.59
11348.00,-106.75
11369.53,-108.16
11391.06,-108.16
11412.60,-106.52
11434.13,-106.20
11455.66,-106.59
11477.20,-107.06
11498.73,-108.39
11520.26,-108.47
11541.80,-107.06
11563.33,-106.75
11584.86,-106.59
11606.40,-107.37
11627.93,-108.23
11649.46,-108.39
11671.00,-107.84
11692.53,-107.22
11714.06,-106.75
11735.60,-107.53
11757.13,-108.55
11778.66,-109.25
11800.20,-108.16
11821.73,-107.53
11843.26,-106.75
11864.79,-107.53
11886.33,-108.86
11907.86,-109.02
11929.39,-108.16
11950.93,-107.06
11972.46,-106.67
11993.99,-107.53
12015.53,-109.17
12037.06,-109.80
12058.59,-108.55
12080.13,-107.37
12101.66,-106.59
12123.19,-107.53
12144.73,-108.94
12166.26,-109.48
12187.79,-109.02
12209.33,-107.61
12230.86,-106.91
12252.39,-107.84
12273.93,-109.09
12295.46,-109.25
12316.99,-109.25
12338.53,-107.92
12360.06,-107.22
12381.59,-108.23
12403.13,-109.33
12424.66,-110.11
12446.19,-109.95
12467.72,-108.70
12489.26,-107.77
12510.79,-108.31
12532.32,-109.56
12553.86,-109.64
12575.39,-109.56
12596.92,-108.55
12618.46,-107.45
12639.99,-108.08
12661.52,-109.56
12683.06,-110.89
12704.59,-110.58
12726.12,-108.94
12747.66,-107.92
12769.19,-108.00
12790.72,-109.25
12812.26,-110.58
12833.79,-110.66
12855.32,-109.09
12876.86,-108.31
12898.39,-108.55
12919.92,-109.95
12941.46,-110.42
12962.99,-110.42
12984.52,-109.56
13006.05,-108.55
13027.59,-108.55
13049.12,-109.88
13070.65,-110.97
13092.19,-111.36
13113.72,-109.95
13135.25,-108.39
13156.79,-108.16
13178.32,-109.48
13199.85,-110.89
13221.39,-111.05
13242.92,-109.88
13264.45,-109.02
13285.99,-108.55
13307.52,-109.88
13329.05,-111.52
13350.59,-111.83
13372.12,-110.27
13393.65,-109.48
13415.19,-108.63
13436.72,-110.11
13458.25,-111.75
13479.79,-111.67
13501.32,-110.66
13522.85,-109.09
13544.38,-108.47
13565.92,-109.80
13587.45,-111.83
13608.98,-111.67
13630.52,-110.89
13652.05,-109.41
13673.58,-108.86
13695.12,-110.42
13716.65,-111.99
13738.18,-112.06
13759.72,-111.52
13781.25,-110.42
13802.78,-108.94
13824.32,-110.11
13845.85,-111.75
13867.38,-111.83
13888.92,-111.67
13910.45,-110.81
13931.98,-109.56
13953.52,-110.81
13975.05,-112.38
13996.58,-113.47
14018.12,-112.38
14039.65,-110.81
14061.18,-109.17
14082.71,-110.50
14104.25,-111.99
14125.78,-112.69
14147.31,-112.06
14168.85,-110.58
14190.38,-109.41
14211.91,-111.13
14233.45,-112.38
14254.98,-112.45
14276.51,-112.53
14298.05,-110.89
14319.58,-109.48
14341.11,-110.66
14362.65,-111.83
14384.18,-112.61
14405.71,-112.92
14427.25,-111.44
14448.78,-110.03
14470.31,-111.36
14491.85,-112.30
14513.38,-112.22
14534.91,-112.45
14556.45,-112.14
14577.98,-110.42
14599.51,-110.50
14621.04,-112.14
14642.58,-113.94
14664.11,-113.70
14685.64,-112.06
14707.18,-110.42
14728.71,-110.97
14750.24,-112.61
14771.78,-113.55
14793.31,-113.16
14814.84,-112.22
14836.38,-110.74
14857.91,-110.81
14879.44,-112.45
14900.98,-113.16
14922.51,-113.47
14944.04,-112.92
14965.58,-111.44
14987.11,-110.81
15008.64,-112.61
15030.18,-113.86
15051.71,-113.78
15073.24,-113.08
15094.78,-111.59
15116.31,-110.89
15137.84,-112.92
15159.38,-113.94
15180.91,-113.39
15202.44,-112.77
15223.97,-111.20
15245.51,-110.42
15267.04,-112.38
15288.57,-113.86
15310.11,-114.25
15331.64,-113.63
15353.17,-112.06
15374.71,-111.05
15396.24,-113.24
15417.77,-114.17
15439.31,-113.78
15460.84,-113.47
15482.37,-112.38
15503.91,-111.13
15525.44,-113.16
15546.97,-114.41
15568.51,-113.78
15590.04,-113.78
15611.57,-112.45
15633.11,-110.97
15654.64,-112.92
15676.17,-113.63
15697.71,-113.86
15719.24,-114.41
15740.77,-113.39
15762.30,-111.44
15783.84,-113.16
15805.37,-113.94
15826.90,-113.55
15848.44,-114.17
15869.97,-113.00
15891.50,-111.44
15913.04,-113.16
15934.57,-114.80
15956.10,-114.72
15977.64,-115.03
15999.17,-113.55
16020.70,-111.52
16042.24,-112.61
16063.77,-114.10
16085.30,-114.49
16106.84,-114.80
16128.37,-113.94
16149.90,-111.91
16171.44,-112.77
16192.97,-114.49
16214.50,-114.41
16236.04,-115.03
16257.57,-113.94
16279.10,-112.06
16300.63,-113.39
16322.17,-115.11
16343.70,-114.49
16365.23,-115.11
16386.77,-115.03
16408.30,-112.69
16429.83,-112.69
16451.37,-114.95
16472.90,-114.49
16494.43,-115.11
16515.97,-114.56
16537.50,-112.38
16559.03,-112.45
16580.57,-114.64
16602.10,-115.03
16623.63,-115.19
16645.17,-115.42
16666.70,-113.08
16688.23,-112.61
16709.77,-114.80
16731.30,-115.74
16752.83,-115.35
16774.37,-115.19
16795.90,-113.08
16817.43,-112.92
16838.96,-115.35
16860.50,-115.42
16882.03,-115.03
16903.56,-116.21
16925.10,-114.33
16946.63,-113.16
16968.16,-115.81
16989.70,-115.35
17011.23,-115.19
17032.76,-115.66
17054.30,-113.63
17075.83,-112.77
17097.36,-115.11
17118.90,-115.97
17140.43,-114.64
17161.96,-116.28
17183.50,-115.03
17205.03,-113.00
17226.56,-114.80
17248.10,-115.27
17269.63,-115.03
17291.16,-115.81
17312.70,-114.10
17334.23,-112.61
17355.76,-115.03
17377.29,-116.13
17398.83,-114.88
17420.36,-115.97
17441.89,-115.11
17463.43,-113.16
17484.96,-115.03
17506.49,-116.05
17528.03,-115.03
17549.56,-115.97
17571.09,-115.35
17592.63,-113.39
17614.16,-115.27
17635.69,-116.21
17657.23,-115.03
17678.76,-116.21
17700.29,-115.89
17721.83,-113.63
17743.36,-115.42
17764.89,-116.75
17786.43,-115.19
17807.96,-116.05
17829.49,-116.60
17851.03,-113.94
17872.56,-114.95
17894.09,-116.75
17915.63,-115.58
17937.16,-116.28
17958.69,-116.05
17980.22,-113.47
18001.76,-114.49
18023.29,-116.60
18044.82,-115.50
18066.36,-116.05
18087.89,-117.38
18109.42,-114.49
18130.96,-114.33
18152.49,-116.83
18174.02,-116.28
18195.56,-116.28
18217.09,-116.91
18238.62,-114.02
18260.16,-114.25
18281.69,-116.60
18303.22,-115.50
18324.76,-116.05
18346.29,-117.61
18367.82,-114.72
18389.36,-114.41
18410.89,-117.22
18432.42,-116.28
18453.96,-115.97
18475.49,-118.16
18497.02,-115.27
18518.55,-114.56
18540.09,-117.14
18561.62,-116.60
18583.15,-116.13
18604.69,-117.30
18626.22,-115.03
18647.75,-114.56
18669.29,-117.46
18690.82,-116.44
18712.35,-115.81
18733.89,-117.61
18755.42,-115.74
18776.95,-114.56
18798.49,-117.30
18820.02,-117.22
18841.55,-116.05
18863.09,-117.85
18884.62,-116.21
18906.15,-114.80
18927.69,-117.38
18949.22,-117.06
18970.75,-116.13
18992.29,-117.53
19013.82,-116.13
19035.35,-114.64
19056.88,-117.46
19078.42,-117.85
19099.95,-115.97
19121.48,-118.08
19143.02,-117.46
19164.55,-115.11
19186.08,-117.92
19207.62,-118.16
19229.15,-116.28
19250.68,-117.77
19272.22,-117.38
19293.75,-115.19
19315.28,-117.53
19336.82,-118.24
19358.35,-116.28
19379.88,-117.85
19401.42,-117.06
19422.95,-114.88
19444.48,-117.22
19466.02,-118.47
19487.55,-116.28
19509.08,-117.38
19530.62,-118.39
19552.15,-115.42
19573.68,-117.22
19595.21,-118.71
19616.75,-116.36
19638.28,-117.77
19659.81,-119.02
19681.35,-115.74
19702.88,-117.06
19724.41,-118.94
19745.95,-116.75
19767.48,-116.99
19789.01,-118.08
19810.55,-115.50
19832.08,-116.91
19853.61,-119.49
19875.15,-116.99
19896.68,-117.77
19918.21,-119.17
19939.75,-115.74
19961.28,-116.67
19982.81,-119.33
20004.35,-117.46
20025.88,-117.46
20047.41,-120.27
20068.95,-116.67
20090.48,-116.60
20112.01,-119.72
20133.54,-117.30
20155.08,-117.30
20176.61,-119.64
20198.14,-116.60
20219.68,-116.36
20241.21,-119.80
20262.74,-117.92
20284.28,-117.22
20305.81,-119.02
20327.34,-116.36
20348.88,-116.05
20370.41,-119.33
20391.94,-118.00
20413.48,-117.38
20435.01,-119.17
20456.54,-116.83
20478.08,-115.89
20499.61,-119.17
20521.14,-117.69
20542.68,-116.99
20564.21,-119.64
20585.74,-117.85
20607.28,-115.89
20628.81,-119.02
20650.34,-118.32
20671.88,-117.06
20693.41,-119.80
20714.94,-118.47
20736.47,-115.97
20758.01,-118.47
20779.54,-118.24
20801.07,-117.38
20822.61,-119.02
20844.14,-117.92
20865.67,-115.81
20887.21,-118.78
20908.74,-118.94
20930.27,-117.38
20951.81,-118.71
20973.34,-118.63
20994.87,-116.05
21016.41,-118.55
21037.94,-119.10
21059.47,-117.61
21081.01,-119.10
21102.54,-119.72
21124.07,-116.36
21145.61,-118.32
21167.14,-119.02
21188.67,-117.69
21210.21,-119.17
21231.74,-120.11
21253.27,-116.67
21274.80,-118.08
21296.34,-119.49
21317.87,-117.85
21339.40,-119.17
21360.94,-120.27
21382.47,-116.67
21404.00,-118.16
21425.54,-119.88
21447.07,-117.61
21468.60,-118.16
21490.14,-120.03
21511.67,-116.75
21533.20,-118.24
21554.74,-120.27
21576.27,-117.77
21597.80,-118.16
21619.34,-120.42
21640.87,-117.06
21662.40,-117.85
21683.94,-120.42
21705.47,-118.47
21727.00,-118.78
21748.54,-120.50
21770.07,-117.53
21791.60,-117.61
21813.13,-120.42
21834.67,-118.32
21856.20,-118.63
21877.73,-119.64
21899.27,-117.69
21920.80,-117.69
21942.33,-119.10
21963.87,-118.71
21985.40,-118.71
22006.93,-119.02
22028.47,-118.39
22050.00,-118.55
