Frequency (Hz),Power (dB),44100.0000,2048,0,2.0000,0,L+R
0.00,-98.94
21.53,-97.14
43.07,-91.59
64.60,-84.09
86.13,-80.10
107.67,-59.24
129.20,-52.13
150.73,-57.05
172.27,-77.84
193.80,-68.62
215.33,-60.25
236.87,-36.42
258.40,-28.45
279.93,-32.51
301.46,-57.28
323.00,-63.85
344.53,-55.80
366.06,-34.00
387.60,-24.93
409.13,-28.14
430.66,-49.94
452.20,-62.36
473.73,-59.24
495.26,-39.16
516.80,-28.68
538.33,-30.95
559.86,-49.70
581.40,-62.60
602.93,-58.22
624.46,-40.01
646.00,-28.37
667.53,-29.70
689.06,-46.34
710.60,-61.82
732.13,-66.51
753.66,-53.53
775.20,-40.17
796.73,-40.56
818.26,-55.10
839.79,-68.77
861.33,-65.33
882.86,-50.72
904.39,-35.95
925.93,-35.48
947.46,-48.45
968.99,-65.57
990.53,-66.74
1012.06,-53.92
1033.59,-37.44
1055.13,-36.11
1076.66,-47.83
1098.19,-66.27
1119.73,-70.18
1141.26,-58.61
1162.79,-39.94
1184.33,-37.59
1205.86,-47.75
1227.39,-67.52
1248.93,-71.04
1270.46,-62.29
1291.99,-41.66
1313.53,-38.37
1335.06,-47.20
1356.59,-68.38
1378.13,-72.21
1399.66,-68.07
1421.19,-46.11
1442.72,-42.20
1464.26,-50.33
1485.79,-71.43
1507.32,-73.77
1528.86,-70.65
1550.39,-49.00
1571.92,-44.16
1593.46,-51.11
1614.99,-72.60
1636.52,-75.57
1658.06,-71.66
1679.59,-44.55
1701.12,-38.53
1722.66,-44.55
1744.19,-70.88
1765.72,-74.71
1787.26,-70.80
1808.79,-49.47
1830.32,-42.12
1851.86,-46.81
1873.39,-70.80
1894.92,-74.48
1916.46,-70.02
1937.99,-50.10
1959.52,-41.58
1981.05,-45.17
2002.59,-65.49
2024.12,-71.90
2045.65,-71.35
2067.19,-56.35
2088.72,-47.59
2110.25,-50.64
2131.79,-68.62
2153.32,-73.93
2174.85,-71.90
2196.39,-63.22
2217.92,-53.06
2239.45,-55.02
2260.99,-67.44
2282.52,-69.63
2304.05,-69.40
2325.59,-62.05
2347.12,-51.11
2368.65,-52.05
2390.19,-64.79
2411.72,-67.29
2433.25,-67.99
2454.79,-62.75
2476.32,-51.97
2497.85,-52.36
2519.38,-65.57
2540.92,-74.01
2562.45,-73.46
2583.98,-67.21
2605.52,-55.49
2627.05,-55.72
2648.58,-67.68
2670.12,-70.33
2691.65,-69.40
2713.18,-63.30
2734.72,-49.55
2756.25,-47.99
2777.78,-58.93
2799.32,-70.57
2820.85,-70.65
2842.38,-66.19
2863.92,-49.86
2885.45,-47.20
2906.98,-56.66
2928.52,-67.76
2950.05,-68.30
2971.58,-67.37
2993.12,-51.81
3014.65,-48.14
3036.18,-56.35
3057.71,-69.79
3079.25,-71.12
3100.78,-70.33
3122.31,-53.85
3143.85,-49.63
3165.38,-57.13
3186.91,-73.23
3208.45,-74.63
3229.98,-74.79
3251.51,-57.99
3273.05,-52.83
3294.58,-58.93
3316.11,-69.87
3337.65,-69.55
3359.18,-70.02
3380.71,-59.39
3402.25,-53.38
3423.78,-58.85
3445.31,-72.99
3466.85,-73.85
3488.38,-74.71
3509.91,-61.66
3531.45,-53.77
3552.98,-57.68
3574.51,-74.16
3596.04,-75.41
3617.58,-75.57
3639.11,-63.61
3660.64,-55.49
3682.18,-58.69
3703.71,-70.73
3725.24,-71.04
3746.78,-71.74
3768.31,-64.71
3789.84,-55.49
3811.38,-57.68
3832.91,-71.82
3854.44,-74.24
3875.98,-75.41
3897.51,-67.99
3919.04,-57.99
3940.58,-59.47
3962.11,-73.30
3983.64,-77.29
4005.18,-79.09
4026.71,-72.60
4048.24,-61.97
4069.78,-62.52
4091.31,-72.60
4112.84,-77.52
4134.38,-78.07
4155.91,-73.30
4177.44,-62.44
4198.97,-62.68
4220.51,-74.95
4242.04,-80.26
4263.57,-81.43
4285.11,-77.91
4306.64,-65.26
4328.17,-64.24
4349.71,-75.02
4371.24,-81.27
4392.77,-82.21
4414.31,-79.79
4435.84,-69.01
4457.37,-67.21
4478.91,-76.51
4500.44,-82.53
4521.97,-81.27
4543.51,-78.46
4565.04,-66.35
4586.57,-63.69
4608.11,-71.98
4629.64,-81.43
4651.17,-82.76
4672.71,-81.90
4694.24,-72.52
4715.77,-69.87
4737.30,-77.52
4758.84,-84.48
4780.37,-84.95
4801.90,-85.03
4823.44,-74.95
4844.97,-70.73
4866.50,-76.90
4888.04,-84.87
4909.57,-86.04
4931.10,-84.79
4952.64,-77.68
4974.17,-72.99
4995.70,-78.31
5017.24,-85.73
5038.77,-85.57
5060.30,-85.73
5081.84,-77.68
5103.37,-71.19
5124.90,-75.41
5146.44,-85.42
5167.97,-86.51
5189.50,-86.51
5211.04,-79.71
5232.57,-73.30
5254.10,-76.74
5275.63,-84.56
5297.17,-84.40
5318.70,-83.38
5340.23,-76.82
5361.77,-69.47
5383.30,-71.74
5404.83,-81.51
5426.37,-83.78
5447.90,-83.07
5469.43,-78.85
5490.97,-71.66
5512.50,-73.62
5534.03,-82.76
5555.57,-83.46
5577.10,-83.46
5598.63,-81.20
5620.17,-74.32
5641.70,-75.49
5663.23,-84.40
5684.77,-88.00
5706.30,-87.21
5727.83,-84.79
5749.37,-75.65
5770.90,-75.65
5792.43,-85.81
5813.96,-90.11
5835.50,-89.09
5857.03,-86.51
5878.56,-78.77
5900.10,-78.85
5921.63,-86.59
5943.16,-88.00
5964.70,-88.07
5986.23,-88.07
6007.76,-80.88
6029.30,-79.87
6050.83,-86.90
6072.36,-90.18
6093.90,-89.87
6115.43,-90.03
6136.96,-83.15
6158.50,-81.35
6180.03,-88.31
6201.56,-90.96
6223.10,-91.82
6244.63,-91.75
6266.16,-82.45
6287.70,-79.32
6309.23,-86.12
6330.76,-91.59
6352.29,-91.20
6373.83,-91.28
6395.36,-85.65
6416.89,-82.53
6438.43,-88.54
6459.96,-91.90
6481.49,-91.28
6503.03,-91.28
6524.56,-85.73
6546.09,-82.29
6567.63,-87.14
6589.16,-91.67
6610.69,-91.36
6632.23,-91.28
6653.76,-86.82
6675.29,-82.21
6696.83,-85.65
6718.36,-89.56
6739.89,-89.32
6761.43,-89.25
6782.96,-84.09
6804.49,-79.16
6826.03,-82.92
6847.56,-88.70
6869.09,-88.70
6890.63,-88.23
6912.16,-84.48
6933.69,-78.93
6955.22,-81.90
6976.76,-88.46
6998.29,-88.54
7019.82,-87.92
7041.36,-85.34
7062.89,-79.63
7084.42,-81.90
7105.96,-87.68
7127.49,-87.84
7149.02,-87.45
7170.56,-84.40
7192.09,-77.91
7213.62,-80.10
7235.16,-87.14
7256.69,-87.14
7278.22,-87.14
7299.76,-85.10
7321.29,-79.09
7342.82,-80.18
7364.36,-86.43
7385.89,-87.29
7407.42,-88.23
7428.96,-87.68
7450.49,-81.04
7472.02,-80.88
7493.55,-88.78
7515.09,-91.04
7536.62,-91.67
7558.15,-90.26
7579.69,-85.89
7601.22,-85.26
7622.75,-91.36
7644.29,-93.31
7665.82,-92.53
7687.35,-91.75
7708.89,-86.74
7730.42,-85.18
7751.95,-90.81
7773.49,-91.98
7795.02,-92.06
7816.55,-92.14
7838.09,-86.35
7859.62,-84.17
7881.15,-90.34
7902.69,-93.78
7924.22,-93.15
7945.75,-92.84
7967.29,-89.01
7988.82,-86.98
8010.35,-90.89
8031.88,-92.76
8053.42,-93.07
8074.95,-92.45
8096.48,-88.23
8118.02,-85.89
8139.55,-90.26
8161.08,-91.75
8182.62,-92.29
8204.15,-92.06
8225.68,-89.01
8247.22,-85.96
8268.75,-89.79
8290.28,-92.76
8311.82,-93.39
8333.35,-93.31
8354.88,-91.36
8376.42,-88.62
8397.95,-91.04
8419.48,-93.86
8441.02,-94.25
8462.55,-92.92
8484.08,-91.43
8505.62,-88.07
8527.15,-90.03
8548.68,-92.53
8570.21,-92.45
8591.75,-91.98
8613.28,-89.25
8634.81,-85.18
8656.35,-87.68
8677.88,-91.67
8699.41,-91.90
8720.95,-91.20
8742.48,-89.32
8764.01,-84.24
8785.55,-86.12
8807.08,-91.12
8828.61,-90.50
8850.15,-89.32
8871.68,-87.37
8893.21,-83.46
8914.75,-85.10
8936.28,-90.73
8957.81,-90.42
8979.35,-89.79
9000.88,-88.93
9022.41,-85.34
9043.95,-85.96
9065.48,-88.70
9087.01,-89.01
9108.54,-89.95
9130.08,-89.95
9151.61,-86.43
9173.14,-86.12
9194.68,-89.25
9216.21,-90.81
9237.74,-91.04
9259.28,-90.96
9280.81,-88.62
9302.34,-88.54
9323.88,-90.42
9345.41,-89.48
9366.94,-90.42
9388.48,-90.11
9410.01,-89.17
9431.54,-88.39
9453.08,-90.42
9474.61,-91.36
9496.14,-90.57
9517.68,-91.12
9539.21,-89.95
9560.74,-88.85
9582.28,-91.20
9603.81,-89.79
9625.34,-89.64
9646.88,-90.50
9668.41,-88.70
9689.94,-87.84
9711.47,-90.57
9733.01,-91.04
9754.54,-91.43
9776.07,-91.51
9797.61,-89.32
9819.14,-86.59
9840.67,-89.79
9862.21,-92.29
9883.74,-92.06
9905.27,-91.75
9926.81,-90.26
9948.34,-88.39
9969.87,-91.43
9991.41,-93.15
10012.94,-92.53
10034.47,-91.82
10056.01,-90.57
10077.54,-87.92
10099.07,-90.18
10120.61,-93.07
10142.14,-92.84
10163.67,-91.04
10185.21,-90.57
10206.74,-87.68
10228.27,-89.64
10249.80,-92.21
10271.34,-92.68
10292.87,-92.45
10314.40,-91.98
10335.94,-89.95
10357.47,-90.65
10379.00,-92.92
10400.54,-92.61
10422.07,-92.14
10443.60,-91.36
10465.14,-89.25
10486.67,-89.64
10508.20,-90.42
10529.74,-90.18
10551.27,-90.18
10572.80,-89.95
10594.34,-88.23
10615.87,-89.56
10637.40,-89.79
10658.94,-90.34
10680.47,-90.65
10702.00,-90.03
10723.54,-88.62
10745.07,-88.62
10766.60,-89.56
10788.13,-90.34
10809.67,-90.65
10831.20,-89.87
10852.73,-88.70
10874.27,-89.17
10895.80,-91.51
10917.33,-91.82
10938.87,-91.36
10960.40,-90.50
10981.93,-88.31
11003.47,-88.46
11025.00,-90.26
11046.53,-90.89
11068.07,-90.89
11089.60,-90.89
11111.13,-89.09
11132.67,-89.09
11154.20,-91.59
11175.73,-91.59
11197.27,-92.29
11218.80,-91.90
11240.33,-90.18
11261.87,-89.17
11283.40,-91.04
11304.93,-92.45
11326.46,-92.61
11348.00,-93.00
11369.53,-93.15
11391.06,-91.98
11412.60,-93.47
11434.13,-94.09
11455.66,-94.01
11477.20,-92.61
11498.73,-91.28
11520.26,-91.04
11541.80,-92.21
11563.33,-92.84
11584.86,-93.00
11606.40,-93.54
11627.93,-93.39
11649.46,-92.29
11671.00,-93.39
11692.53,-94.25
11714.06,-93.86
11735.60,-94.01
11757.13,-92.45
11778.66,-91.51
11800.20,-92.92
11821.73,-93.23
11843.26,-92.45
11864.79,-91.98
11886.33,-92.06
11907.86,-90.65
11929.39,-92.14
11950.93,-92.84
11972.46,-92.21
11993.99,-91.98
12015.53,-91.90
12037.06,-90.73
12058.59,-91.28
12080.13,-92.61
12101.66,-93.15
12123.19,-93.86
12144.73,-92.68
12166.26,-90.73
12187.79,-91.51
12209.33,-92.61
12230.86,-92.61
12252.39,-92.29
12273.93,-91.36
12295.46,-89.32
12316.99,-89.56
12338.53,-91.59
12360.06,-91.75
12381.59,-93.39
12403.13,-92.14
12424.66,-89.64
12446.19,-89.95
12467.72,-91.43
12489.26,-91.75
12510.79,-92.14
12532.32,-92.45
12553.86,-91.28
12575.39,-90.89
12596.92,-92.29
12618.46,-91.98
12639.99,-92.37
12661.52,-92.45
12683.06,-91.67
12704.59,-91.20
12726.12,-92.53
12747.66,-93.00
12769.19,-92.92
12790.72,-93.39
12812.26,-91.59
12833.79,-90.81
12855.32,-93.31
12876.86,-94.01
12898.39,-93.93
12919.92,-93.86
12941.46,-91.98
12962.99,-91.20
12984.52,-92.29
13006.05,-92.14
13027.59,-92.68
13049.12,-92.61
13070.65,-92.14
13092.19,-91.51
13113.72,-93.31
13135.25,-93.47
13156.79,-93.15
13178.32,-93.15
13199.85,-93.47
13221.39,-92.29
13242.92,-93.39
13264.45,-94.01
13285.99,-94.25
13307.52,-93.70
13329.05,-93.23
13350.59,-92.68
13372.12,-93.47
13393.65,-94.09
13415.19,-94.25
13436.72,-93.62
13458.25,-93.54
13479.79,-92.37
13501.32,-93.39
13522.85,-94.32
13544.38,-94.32
13565.92,-94.25
13587.45,-94.01
13608.98,-93.15
13630.52,-94.32
13652.05,-95.81
13673.58,-95.42
13695.12,-94.64
13716.65,-94.01
13738.18,-92.92
13759.72,-92.53
13781.25,-93.78
13802.78,-94.17
13824.32,-94.87
13845.85,-93.39
13867.38,-91.36
13888.92,-91.67
13910.45,-93.07
13931.98,-94.32
13953.52,-94.79
13975.05,-94.79
13996.58,-92.76
14018.12,-93.00
14039.65,-94.32
14061.18,-93.86
14082.71,-93.07
14104.25,-93.00
14125.78,-91.98
14147.31,-91.90
14168.85,-93.78
14190.38,-94.17
14211.91,-94.09
14233.45,-93.47
14254.98,-93.00
14276.51,-93.70
14298.05,-94.40
14319.58,-94.64
14341.11,-94.72
14362.65,-93.70
14384.18,-93.15
14405.71,-93.07
14427.25,-93.93
14448.78,-94.09
14470.31,-94.56
14491.85,-95.03
14513.38,-94.64
14534.91,-94.56
14556.45,-95.26
14577.98,-96.75
14599.51,-96.43
14621.04,-95.97
14642.58,-95.50
14664.11,-95.34
14685.64,-95.11
14707.18,-95.03
14728.71,-95.50
14750.24,-95.89
14771.78,-95.11
14793.31,-94.17
14814.84,-94.72
14836.38,-95.26
14857.91,-95.89
14879.44,-96.20
14900.98,-95.58
14922.51,-94.95
14944.04,-95.42
14965.58,-95.73
14987.11,-95.58
15008.64,-95.34
15030.18,-95.65
15051.71,-94.64
15073.24,-94.64
15094.78,-95.03
15116.31,-95.11
15137.84,-95.58
15159.38,-96.20
15180.91,-96.04
15202.44,-95.50
15223.97,-95.97
15245.51,-96.98
15267.04,-97.06
15288.57,-96.51
15310.11,-95.50
15331.64,-95.26
15353.17,-95.97
15374.71,-96.51
15396.24,-96.67
15417.77,-96.75
15439.31,-97.29
15460.84,-96.28
15482.37,-96.04
15503.91,-95.34
15525.44,-95.73
15546.97,-96.20
15568.51,-95.89
15590.04,-96.28
15611.57,-96.51
15633.11,-95.81
15654.64,-95.97
15676.17,-96.04
15697.71,-96.43
15719.24,-96.20
15740.77,-96.67
15762.30,-97.22
15783.84,-97.45
15805.37,-97.61
15826.90,-98.39
15848.44,-98.08
15869.97,-98.08
15891.50,-97.61
15913.04,-97.61
15934.57,-97.14
15956.10,-97.22
15977.64,-97.22
15999.17,-97.61
16020.70,-98.23
16042.24,-98.15
16063.77,-97.76
16085.30,-97.68
16106.84,-98.00
16128.37,-97.68
16149.90,-97.61
16171.44,-97.68
16192.97,-97.37
16214.50,-97.14
16236.04,-97.14
16257.57,-98.31
16279.10,-98.39
16300.63,-98.08
16322.17,-97.76
16343.70,-97.92
16365.23,-98.47
16386.77,-97.92
16408.30,-98.08
16429.83,-98.54
16451.37,-97.92
16472.90,-97.37
16494.43,-96.43
16515.97,-97.37
16537.50,-97.53
16559.03,-97.61
16580.57,-97.76
16602.10,-96.98
16623.63,-96.83
16645.17,-96.75
16666.70,-97.22
16688.23,-97.45
16709.77,-98.23
16731.30,-98.78
16752.83,-97.76
16774.37,-97.45
16795.90,-97.68
16817.43,-97.68
16838.96,-97.84
16860.50,-98.00
16882.03,-97.76
16903.56,-98.08
16925.10,-98.31
16946.63,-98.54
16968.16,-98.47
16989.70,-99.48
17011.23,-98.94
17032.76,-98.47
17054.30,-98.54
17075.83,-97.76
17097.36,-97.84
17118.90,-97.92
17140.43,-98.00
17161.96,-97.45
17183.50,-97.61
17205.03,-97.84
17226.56,-98.00
17248.10,-97.53
17269.63,-97.06
17291.16,-96.90
17312.70,-96.90
17334.23,-97.84
17355.76,-99.01
17377.29,-98.15
17398.83,-96.90
17420.36,-97.06
17441.89,-97.84
17463.43,-98.08
17484.96,-97.22
17506.49,-97.37
17528.03,-97.37
17549.56,-97.92
17571.09,-98.54
17592.63,-99.01
17614.16,-98.70
17635.69,-98.08
17657.23,-98.31
17678.76,-98.31
17700.29,-98.62
17721.83,-98.39
17743.36,-98.08
17764.89,-97.84
17786.43,-97.76
17807.96,-98.39
17829.49,-98.70
17851.03,-98.47
17872.56,-98.31
17894.09,-98.54
17915.63,-97.92
17937.16,-98.47
17958.69,-98.94
17980.22,-99.40
18001.76,-100.03
18023.29,-100.03
18044.82,-100.42
18066.36,-99.48
18087.89,-100.42
18109.42,-101.12
18130.96,-100.42
18152.49,-99.48
18174.02,-99.48
18195.56,-99.72
18217.09,-100.11
18238.62,-101.12
18260.16,-101.67
18281.69,-100.50
18303.22,-100.81
18324.76,-100.81
18346.29,-99.95
18367.82,-100.19
18389.36,-100.19
18410.89,-100.11
18432.42,-100.65
18453.96,-100.73
18475.49,-100.03
18497.02,-100.26
18518.55,-100.42
18540.09,-100.50
18561.62,-100.89
18583.15,-100.11
18604.69,-99.87
18626.22,-100.26
18647.75,-100.89
18669.29,-101.83
18690.82,-101.83
18712.35,-100.97
18733.89,-100.73
18755.42,-101.75
18776.95,-101.59
18798.49,-100.50
18820.02,-99.87
18841.55,-99.48
18863.09,-99.25
18884.62,-99.72
18906.15,-100.03
18927.69,-100.11
18949.22,-99.95
18970.75,-100.26
18992.29,-100.50
19013.82,-100.26
19035.35,-101.12
19056.88,-100.97
19078.42,-100.73
19099.95,-100.50
19121.48,-100.50
19143.02,-100.58
19164.55,-100.65
19186.08,-100.81
19207.62,-100.42
19229.15,-100.26
19250.68,-100.26
19272.22,-100.89
19293.75,-101.12
19315.28,-101.51
19336.82,-101.28
19358.35,-101.05
19379.88,-101.75
19401.42,-102.22
19422.95,-102.30
19444.48,-100.89
19466.02,-99.87
19487.55,-99.72
19509.08,-100.19
19530.62,-100.34
19552.15,-100.50
19573.68,-100.65
19595.21,-100.89
19616.75,-100.34
19638.28,-100.19
19659.81,-100.58
19681.35,-100.50
19702.88,-100.34
19724.41,-100.73
19745.95,-100.89
19767.48,-101.44
19789.01,-101.90
19810.55,-101.51
19832.08,-101.75
19853.61,-101.44
19875.15,-101.05
19896.68,-101.67
19918.21,-100.81
19939.75,-101.12
19961.28,-101.67
19982.81,-101.83
20004.35,-101.75
20025.88,-101.67
20047.41,-101.90
20068.95,-101.90
20090.48,-101.44
20112.01,-101.12
20133.54,-101.51
20155.08,-101.05
20176.61,-101.05
20198.14,-101.44
20219.68,-101.67
20241.21,-102.22
20262.74,-102.45
20284.28,-102.14
20305.81,-102.22
20327.34,-102.22
20348.88,-101.90
20370.41,-101.51
20391.94,-101.67
20413.48,-100.81
20435.01,-100.97
20456.54,-101.44
20478.08,-102.14
20499.61,-102.14
20521.14,-102.45
20542.68,-102.37
20564.21,-101.90
20585.74,-101.36
20607.28,-101.28
20628.81,-102.06
20650.34,-101.98
20671.88,-101.59
20693.41,-101.44
20714.94,-101.12
20736.47,-101.75
20758.01,-101.75
20779.54,-101.67
20801.07,-101.67
20822.61,-101.67
20844.14,-100.97
20865.67,-101.59
20887.21,-101.59
20908.74,-101.90
20930.27,-102.37
20951.81,-102.45
20973.34,-102.53
20994.87,-103.16
21016.41,-102.69
21037.94,-102.45
21059.47,-102.30
21081.01,-102.14
21102.54,-102.37
21124.07,-102.61
21145.61,-102.69
21167.14,-102.45
21188.67,-102.76
21210.21,-103.16
21231.74,-103.16
21253.27,-103.00
21274.80,-103.08
21296.34,-102.76
21317.87,-102.92
21339.40,-102.76
21360.94,-103.16
21382.47,-103.31
21404.00,-102.69
21425.54,-102.84
21447.07,-103.62
21468.60,-103.47
21490.14,-103.16
21511.67,-102.69
21533.20,-102.37
21554.74,-102.69
21576.27,-102.69
21597.80,-102.69
21619.34,-103.16
21640.87,-103.08
21662.40,-102.84
21683.94,-102.76
21705.47,-104.01
21727.00,-103.55
21748.54,-103.62
21770.07,-104.09
21791.60,-104.48
21813.13,-104.95
21834.67,-105.11
21856.20,-104.64
21877.73,-105.34
21899.27,-104.87
21920.80,-105.42
21942.33,-105.34
21963.87,-105.66
21985.40,-105.66
22006.93,-105.73
22028.47,-106.28
22050.00,-107.37
