Frequency (Hz),Power (dB),44100.0000,2048,0,2.0000,0,L+R
0.00,-67.68
21.53,-73.54
43.07,-88.00
64.60,-88.85
86.13,-78.46
107.67,-46.19
129.20,-39.31
150.73,-44.47
172.27,-74.63
193.80,-78.62
215.33,-68.07
236.87,-41.73
258.40,-33.92
279.93,-38.22
301.46,-62.60
323.00,-70.49
344.53,-61.74
366.06,-38.37
387.60,-29.62
409.13,-33.06
430.66,-54.71
452.20,-64.79
473.73,-58.53
495.26,-39.31
516.80,-29.47
538.33,-32.20
559.86,-51.03
581.40,-62.21
602.93,-56.66
624.46,-38.69
646.00,-27.82
667.53,-29.70
689.06,-47.05
710.60,-59.86
732.13,-56.27
753.66,-39.55
775.20,-27.75
796.73,-28.84
818.26,-44.23
839.79,-57.36
861.33,-54.86
882.86,-40.72
904.39,-27.51
925.93,-27.82
947.46,-41.89
968.99,-57.28
990.53,-57.44
1012.06,-44.78
1033.59,-30.56
1055.13,-30.09
1076.66,-42.75
1098.19,-58.77
1119.73,-60.18
1141.26,-49.08
1162.79,-33.61
1184.33,-32.43
1205.86,-43.77
1227.39,-59.94
1248.93,-61.27
1270.46,-50.95
1291.99,-34.15
1313.53,-32.28
1335.06,-42.44
1356.59,-60.72
1378.13,-61.97
1399.66,-53.22
1421.19,-35.87
1442.72,-33.22
1464.26,-42.36
1485.79,-60.18
1507.32,-62.44
1528.86,-55.02
1550.39,-37.51
1571.92,-34.00
1593.46,-42.12
1614.99,-59.00
1636.52,-61.74
1658.06,-55.49
1679.59,-38.06
1701.12,-33.84
1722.66,-40.95
1744.19,-58.22
1765.72,-61.58
1787.26,-55.17
1808.79,-37.75
1830.32,-32.75
1851.86,-39.00
1873.39,-54.24
1894.92,-59.24
1916.46,-55.41
1937.99,-38.37
1959.52,-32.59
1981.05,-38.06
2002.59,-54.78
2024.12,-61.35
2045.65,-58.22
2067.19,-40.95
2088.72,-34.47
2110.25,-39.16
2131.79,-55.64
2153.32,-62.68
2174.85,-59.71
2196.39,-44.08
2217.92,-36.89
2239.45,-40.80
2260.99,-55.41
2282.52,-62.60
2304.05,-60.41
2325.59,-45.17
2347.12,-37.36
2368.65,-40.48
2390.19,-54.63
2411.72,-62.91
2433.25,-61.19
2454.79,-48.22
2476.32,-39.78
2497.85,-42.20
2519.38,-55.10
2540.92,-63.38
2562.45,-61.89
2583.98,-48.92
2605.52,-39.78
2627.05,-41.50
2648.58,-54.00
2670.12,-64.47
2691.65,-63.38
2713.18,-52.28
2734.72,-42.75
2756.25,-43.77
2777.78,-55.02
2799.32,-64.86
2820.85,-64.79
2842.38,-54.39
2863.92,-44.23
2885.45,-44.55
2906.98,-54.71
2928.52,-64.55
2950.05,-65.33
2971.58,-55.88
2993.12,-45.41
3014.65,-45.09
3036.18,-54.55
3057.71,-65.41
3079.25,-66.51
3100.78,-57.13
3122.31,-46.34
3143.85,-45.33
3165.38,-54.00
3186.91,-65.57
3208.45,-66.11
3229.98,-57.44
3251.51,-46.34
3273.05,-44.78
3294.58,-52.67
3316.11,-64.40
3337.65,-65.65
3359.18,-57.75
3380.71,-46.50
3402.25,-44.31
3423.78,-51.50
3445.31,-63.15
3466.85,-65.72
3488.38,-59.71
3509.91,-48.45
3531.45,-45.72
3552.98,-52.05
3574.51,-63.54
3596.04,-66.90
3617.58,-61.97
3639.11,-50.95
3660.64,-47.67
3682.18,-53.38
3703.71,-64.63
3725.24,-67.91
3746.78,-63.15
3768.31,-51.97
3789.84,-48.14
3811.38,-52.99
3832.91,-63.54
3854.44,-67.21
3875.98,-63.22
3897.51,-51.81
3919.04,-47.52
3940.58,-51.89
3962.11,-63.07
3983.64,-68.15
4005.18,-64.63
4026.71,-53.30
4048.24,-48.45
4069.78,-52.13
4091.31,-62.21
4112.84,-67.37
4134.38,-65.33
4155.91,-54.47
4177.44,-49.39
4198.97,-52.36
4220.51,-62.05
4242.04,-68.22
4263.57,-67.60
4285.11,-57.05
4306.64,-51.58
4328.17,-53.85
4349.71,-62.91
4371.24,-69.24
4392.77,-68.38
4414.31,-57.83
4435.84,-52.05
4457.37,-53.92
4478.91,-62.60
4500.44,-70.02
4521.97,-69.87
4543.51,-59.16
4565.04,-52.91
4586.57,-54.16
4608.11,-61.82
4629.64,-68.46
4651.17,-68.15
4672.71,-58.30
4694.24,-51.89
4715.77,-52.67
4737.30,-60.10
4758.84,-68.22
4780.37,-68.93
4801.90,-60.18
4823.44,-53.61
4844.97,-53.85
4866.50,-60.41
4888.04,-67.83
4909.57,-69.16
4931.10,-61.11
4952.64,-54.32
4974.17,-54.24
4995.70,-60.57
5017.24,-69.24
5038.77,-71.19
5060.30,-65.02
5081.84,-58.38
5103.37,-57.75
5124.90,-63.15
5146.44,-71.12
5167.97,-72.52
5189.50,-66.04
5211.04,-59.00
5232.57,-57.99
5254.10,-62.91
5275.63,-71.27
5297.17,-73.38
5318.70,-67.68
5340.23,-60.41
5361.77,-59.08
5383.30,-63.38
5404.83,-70.65
5426.37,-72.13
5447.90,-66.90
5469.43,-59.47
5490.97,-57.75
5512.50,-61.50
5534.03,-69.16
5555.57,-72.05
5577.10,-67.99
5598.63,-60.33
5620.17,-58.30
5641.70,-61.66
5663.23,-69.32
5684.77,-72.29
5706.30,-68.77
5727.83,-60.88
5749.37,-58.61
5770.90,-61.50
5792.43,-68.38
5813.96,-71.51
5835.50,-69.24
5857.03,-61.50
5878.56,-58.93
5900.10,-61.19
5921.63,-67.83
5943.16,-71.27
5964.70,-69.08
5986.23,-61.11
6007.76,-58.30
6029.30,-60.41
6050.83,-67.13
6072.36,-71.19
6093.90,-69.08
6115.43,-60.88
6136.96,-57.75
6158.50,-59.47
6180.03,-65.49
6201.56,-69.55
6223.10,-68.38
6244.63,-60.72
6266.16,-57.68
6287.70,-59.16
6309.23,-64.94
6330.76,-69.55
6352.29,-69.32
6373.83,-62.05
6395.36,-58.69
6416.89,-59.71
6438.43,-64.71
6459.96,-69.24
6481.49,-69.40
6503.03,-62.21
6524.56,-58.53
6546.09,-59.24
6567.63,-64.00
6589.16,-69.24
6610.69,-70.02
6632.23,-63.77
6653.76,-60.10
6675.29,-60.72
6696.83,-65.10
6718.36,-70.65
6739.89,-71.66
6761.43,-65.41
6782.96,-61.50
6804.49,-61.89
6826.03,-65.72
6847.56,-71.35
6869.09,-72.91
6890.63,-67.29
6912.16,-63.22
6933.69,-63.38
6955.22,-66.82
6976.76,-72.52
6998.29,-73.93
7019.82,-68.93
7041.36,-64.86
7062.89,-64.86
7084.42,-67.99
7105.96,-73.30
7127.49,-74.79
7149.02,-69.79
7170.56,-65.33
7192.09,-65.02
7213.62,-67.76
7235.16,-72.91
7256.69,-74.79
7278.22,-69.94
7299.76,-65.33
7321.29,-64.86
7342.82,-67.21
7364.36,-72.29
7385.89,-74.09
7407.42,-70.10
7428.96,-65.49
7450.49,-64.86
7472.02,-66.82
7493.55,-71.90
7515.09,-74.40
7536.62,-70.57
7558.15,-65.57
7579.69,-64.63
7601.22,-66.43
7622.75,-71.27
7644.29,-73.62
7665.82,-70.65
7687.35,-65.88
7708.89,-65.02
7730.42,-66.51
7751.95,-71.27
7773.49,-74.24
7795.02,-71.90
7816.55,-67.05
7838.09,-66.04
7859.62,-67.44
7881.15,-71.90
7902.69,-74.87
7924.22,-72.37
7945.75,-67.29
7967.29,-66.04
7988.82,-67.13
8010.35,-71.19
8031.88,-74.16
8053.42,-72.37
8074.95,-67.44
8096.48,-66.11
8118.02,-67.05
8139.55,-70.80
8161.08,-74.48
8182.62,-73.54
8204.15,-69.01
8225.68,-67.52
8247.22,-68.38
8268.75,-71.82
8290.28,-75.26
8311.82,-74.79
8333.35,-70.33
8354.88,-68.77
8376.42,-69.40
8397.95,-72.44
8419.48,-76.04
8441.02,-76.20
8462.55,-71.43
8484.08,-69.63
8505.62,-70.02
8527.15,-72.60
8548.68,-76.12
8570.21,-76.27
8591.75,-71.82
8613.28,-70.02
8634.81,-70.33
8656.35,-72.91
8677.88,-76.66
8699.41,-77.21
8720.95,-73.07
8742.48,-71.19
8764.01,-71.35
8785.55,-73.54
8807.08,-77.37
8828.61,-78.23
8850.15,-73.69
8871.68,-71.51
8893.21,-71.51
8914.75,-73.38
8936.28,-76.74
8957.81,-77.68
8979.35,-73.93
9000.88,-71.82
9022.41,-71.82
9043.95,-73.62
9065.48,-76.90
9087.01,-77.99
9108.54,-74.32
9130.08,-71.98
9151.61,-71.98
9173.14,-73.46
9194.68,-76.51
9216.21,-77.99
9237.74,-74.63
9259.28,-72.44
9280.81,-72.21
9302.34,-73.54
9323.88,-76.66
9345.41,-78.46
9366.94,-75.57
9388.48,-73.23
9410.01,-72.99
9431.54,-74.16
9453.08,-76.90
9474.61,-78.31
9496.14,-75.41
9517.68,-72.99
9539.21,-72.68
9560.74,-73.62
9582.28,-76.43
9603.81,-78.46
9625.34,-76.66
9646.88,-74.79
9668.41,-74.55
9689.94,-75.65
9711.47,-78.46
9733.01,-80.18
9754.54,-77.68
9776.07,-75.02
9797.61,-74.71
9819.14,-75.26
9840.67,-77.45
9862.21,-79.56
9883.74,-77.45
9905.27,-74.87
9926.81,-74.55
9948.34,-75.10
9969.87,-77.37
9991.41,-79.79
10012.94,-78.31
10034.47,-75.80
10056.01,-75.41
10077.54,-75.73
10099.07,-77.84
10120.61,-79.79
10142.14,-78.38
10163.67,-75.88
10185.21,-75.49
10206.74,-75.80
10228.27,-77.60
10249.80,-80.02
10271.34,-79.32
10292.87,-76.90
10314.40,-76.59
10335.94,-76.74
10357.47,-78.23
10379.00,-80.26
10400.54,-79.63
10422.07,-77.37
10443.60,-76.98
10465.14,-77.29
10486.67,-78.85
10508.20,-81.43
10529.74,-81.67
10551.27,-79.56
10572.80,-79.24
10594.34,-79.40
10615.87,-80.65
10637.40,-82.92
10658.94,-82.99
10680.47,-80.57
10702.00,-80.02
10723.54,-80.18
10745.07,-81.12
10766.60,-82.99
10788.13,-82.99
10809.67,-80.42
10831.20,-79.87
10852.73,-79.71
10874.27,-80.65
10895.80,-82.68
10917.33,-83.31
10938.87,-81.35
10960.40,-80.96
10981.93,-81.04
11003.47,-81.74
11025.00,-83.38
11046.53,-83.07
11068.07,-80.57
11089.60,-79.79
11111.13,-79.71
11132.67,-80.42
11154.20,-82.06
11175.73,-82.99
11197.27,-81.43
11218.80,-80.96
11240.33,-81.20
11261.87,-81.98
11283.40,-84.01
11304.93,-85.34
11326.46,-83.78
11348.00,-83.07
11369.53,-82.92
11391.06,-83.31
11412.60,-84.48
11434.13,-84.87
11455.66,-82.92
11477.20,-81.98
11498.73,-82.13
11520.26,-82.68
11541.80,-84.01
11563.33,-84.95
11584.86,-83.85
11606.40,-83.15
11627.93,-83.15
11649.46,-83.38
11671.00,-84.32
11692.53,-84.87
11714.06,-83.07
11735.60,-82.06
11757.13,-82.13
11778.66,-82.53
11800.20,-83.70
11821.73,-84.87
11843.26,-83.78
11864.79,-83.15
11886.33,-83.46
11907.86,-83.78
11929.39,-84.95
11950.93,-86.12
11972.46,-84.71
11993.99,-83.54
12015.53,-83.70
12037.06,-83.85
12058.59,-84.71
12080.13,-86.04
12101.66,-85.26
12123.19,-84.71
12144.73,-85.10
12166.26,-85.34
12187.79,-86.20
12209.33,-87.37
12230.86,-86.43
12252.39,-85.49
12273.93,-85.65
12295.46,-85.73
12316.99,-86.67
12338.53,-88.39
12360.06,-88.23
12381.59,-87.53
12403.13,-87.53
12424.66,-87.60
12446.19,-88.00
12467.72,-88.85
12489.26,-87.60
12510.79,-85.89
12532.32,-85.73
12553.86,-85.89
12575.39,-86.04
12596.92,-87.21
12618.46,-86.82
12639.99,-85.89
12661.52,-86.12
12683.06,-86.20
12704.59,-86.67
12726.12,-88.00
12747.66,-87.45
12769.19,-86.51
12790.72,-86.67
12812.26,-86.59
12833.79,-86.90
12855.32,-88.46
12876.86,-88.15
12898.39,-86.90
12919.92,-86.90
12941.46,-87.06
12962.99,-87.21
12984.52,-88.15
13006.05,-88.07
13027.59,-87.45
13049.12,-87.84
13070.65,-88.00
13092.19,-88.39
13113.72,-89.71
13135.25,-90.34
13156.79,-89.71
13178.32,-89.71
13199.85,-89.79
13221.39,-89.64
13242.92,-90.03
13264.45,-89.48
13285.99,-88.31
13307.52,-88.31
13329.05,-88.31
13350.59,-88.39
13372.12,-89.25
13393.65,-89.64
13415.19,-88.93
13436.72,-89.01
13458.25,-89.32
13479.79,-89.40
13501.32,-90.11
13522.85,-90.42
13544.38,-89.71
13565.92,-89.95
13587.45,-90.18
13608.98,-90.11
13630.52,-90.65
13652.05,-91.04
13673.58,-90.34
13695.12,-90.18
13716.65,-90.50
13738.18,-90.57
13759.72,-90.89
13781.25,-91.43
13802.78,-90.89
13824.32,-90.96
13845.85,-91.36
13867.38,-91.36
13888.92,-91.43
13910.45,-91.67
13931.98,-90.89
13953.52,-90.96
13975.05,-91.43
13996.58,-91.36
14018.12,-91.59
14039.65,-92.53
14061.18,-92.45
14082.71,-92.53
14104.25,-92.92
14125.78,-92.76
14147.31,-92.76
14168.85,-93.15
14190.38,-92.21
14211.91,-91.82
14233.45,-92.06
14254.98,-92.14
14276.51,-91.75
14298.05,-92.06
14319.58,-91.59
14341.11,-91.51
14362.65,-91.98
14384.18,-92.14
14405.71,-92.06
14427.25,-92.61
14448.78,-92.21
14470.31,-92.21
14491.85,-92.68
14513.38,-92.84
14534.91,-92.92
14556.45,-93.78
14577.98,-94.09
14599.51,-94.32
14621.04,-94.95
14642.58,-95.11
14664.11,-94.95
14685.64,-95.26
14707.18,-94.79
14728.71,-94.72
14750.24,-94.95
14771.78,-95.26
14793.31,-94.87
14814.84,-95.11
14836.38,-94.56
14857.91,-94.25
14879.44,-94.56
14900.98,-94.87
14922.51,-94.48
14944.04,-94.72
14965.58,-94.48
14987.11,-94.48
15008.64,-95.11
15030.18,-95.50
15051.71,-95.18
15073.24,-95.50
15094.78,-95.42
15116.31,-95.42
15137.84,-95.89
15159.38,-96.28
15180.91,-95.89
15202.44,-95.81
15223.97,-95.58
15245.51,-95.65
15267.04,-96.28
15288.57,-96.75
15310.11,-96.43
15331.64,-96.59
15353.17,-96.75
15374.71,-97.14
15396.24,-97.76
15417.77,-98.15
15439.31,-97.92
15460.84,-97.84
15482.37,-97.37
15503.91,-97.22
15525.44,-97.61
15546.97,-98.31
15568.51,-98.31
15590.04,-98.00
15611.57,-98.15
15633.11,-98.94
15654.64,-99.95
15676.17,-100.50
15697.71,-100.42
15719.24,-100.58
15740.77,-99.87
15762.30,-99.56
15783.84,-99.33
15805.37,-99.79
15826.90,-99.79
15848.44,-99.09
15869.97,-98.70
15891.50,-98.62
15913.04,-99.09
15934.57,-99.87
15956.10,-100.11
15977.64,-99.48
15999.17,-99.01
16020.70,-99.09
16042.24,-99.48
16063.77,-100.19
16085.30,-100.58
16106.84,-99.87
16128.37,-99.48
16149.90,-99.72
16171.44,-100.34
16192.97,-101.05
16214.50,-101.51
16236.04,-100.97
16257.57,-100.58
16279.10,-100.58
16300.63,-100.89
16322.17,-101.44
16343.70,-101.90
16365.23,-101.12
16386.77,-100.34
16408.30,-100.03
16429.83,-100.50
16451.37,-101.20
16472.90,-101.90
16494.43,-101.36
16515.97,-100.81
16537.50,-100.65
16559.03,-101.12
16580.57,-101.59
16602.10,-102.22
16623.63,-101.83
16645.17,-101.36
16666.70,-101.44
16688.23,-102.14
16709.77,-102.84
16731.30,-103.55
16752.83,-103.16
16774.37,-102.84
16795.90,-102.37
16817.43,-102.53
16838.96,-103.08
16860.50,-103.62
16882.03,-103.08
16903.56,-102.37
16925.10,-101.83
16946.63,-102.53
16968.16,-103.62
16989.70,-104.33
17011.23,-104.33
17032.76,-103.94
17054.30,-103.23
17075.83,-103.70
17097.36,-104.25
17118.90,-104.56
17140.43,-104.56
17161.96,-104.01
17183.50,-103.39
17205.03,-104.25
17226.56,-105.19
17248.10,-105.73
17269.63,-105.66
17291.16,-105.11
17312.70,-104.17
17334.23,-104.56
17355.76,-104.95
17377.29,-105.26
17398.83,-105.03
17420.36,-104.41
17441.89,-103.23
17463.43,-103.47
17484.96,-104.25
17506.49,-105.19
17528.03,-105.03
17549.56,-104.80
17571.09,-104.01
17592.63,-104.41
17614.16,-104.72
17635.69,-105.34
17657.23,-105.50
17678.76,-104.80
17700.29,-103.94
17721.83,-104.48
17743.36,-105.26
17764.89,-106.05
17786.43,-106.52
17807.96,-106.44
17829.49,-105.11
17851.03,-105.66
17872.56,-106.36
17894.09,-106.83
17915.63,-106.83
17937.16,-106.28
17958.69,-105.19
17980.22,-105.50
18001.76,-106.28
18023.29,-106.91
18044.82,-107.06
18066.36,-106.52
18087.89,-105.34
18109.42,-105.26
18130.96,-105.73
18152.49,-106.44
18174.02,-106.75
18195.56,-105.97
18217.09,-105.34
18238.62,-105.66
18260.16,-106.44
18281.69,-107.14
18303.22,-107.53
18324.76,-106.91
18346.29,-106.05
18367.82,-106.20
18389.36,-106.83
18410.89,-107.45
18432.42,-107.53
18453.96,-106.98
18475.49,-106.36
18497.02,-106.52
18518.55,-107.22
18540.09,-108.08
18561.62,-108.16
18583.15,-107.53
18604.69,-106.91
18626.22,-106.59
18647.75,-107.45
18669.29,-108.31
18690.82,-108.63
18712.35,-108.23
18733.89,-107.22
18755.42,-107.06
18776.95,-107.92
18798.49,-108.78
18820.02,-108.78
18841.55,-108.08
18863.09,-107.77
18884.62,-107.53
18906.15,-108.00
18927.69,-108.78
18949.22,-109.25
18970.75,-108.70
18992.29,-107.84
19013.82,-107.30
19035.35,-108.47
19056.88,-109.25
19078.42,-109.33
19099.95,-109.25
19121.48,-108.55
19143.02,-107.61
19164.55,-108.31
19186.08,-108.94
19207.62,-109.48
19229.15,-109.02
19250.68,-108.55
19272.22,-107.92
19293.75,-108.86
19315.28,-109.72
19336.82,-110.27
19358.35,-110.03
19379.88,-109.09
19401.42,-108.39
19422.95,-109.09
19444.48,-109.80
19466.02,-110.42
19487.55,-110.58
19509.08,-109.56
19530.62,-108.70
19552.15,-109.64
19573.68,-110.34
19595.21,-110.97
19616.75,-110.74
19638.28,-110.27
19659.81,-109.56
19681.35,-110.34
19702.88,-111.36
19724.41,-111.36
19745.95,-111.59
19767.48,-110.97
19789.01,-110.19
19810.55,-110.66
19832.08,-111.36
19853.61,-111.52
19875.15,-111.99
19896.68,-111.36
19918.21,-109.88
19939.75,-110.66
19961.28,-112.14
19982.81,-112.77
20004.35,-112.61
20025.88,-112.14
20047.41,-110.89
20068.95,-111.52
20090.48,-112.77
20112.01,-113.08
20133.54,-112.77
20155.08,-112.30
20176.61,-111.05
20198.14,-111.44
20219.68,-112.69
20241.21,-113.31
20262.74,-113.39
20284.28,-112.77
20305.81,-111.83
20327.34,-112.30
20348.88,-112.77
20370.41,-112.45
20391.94,-112.61
20413.48,-112.45
20435.01,-111.59
20456.54,-111.75
20478.08,-113.08
20499.61,-113.47
20521.14,-113.16
20542.68,-113.24
20564.21,-112.30
20585.74,-112.06
20607.28,-112.38
20628.81,-112.92
20650.34,-112.84
20671.88,-113.00
20693.41,-112.22
20714.94,-112.22
20736.47,-113.08
20758.01,-114.17
20779.54,-113.94
20801.07,-113.78
20822.61,-112.92
20844.14,-112.61
20865.67,-113.39
20887.21,-113.86
20908.74,-113.86
20930.27,-113.78
20951.81,-113.47
20973.34,-112.92
20994.87,-113.86
21016.41,-113.78
21037.94,-113.86
21059.47,-114.25
21081.01,-113.16
21102.54,-112.45
21124.07,-113.39
21145.61,-113.94
21167.14,-114.02
21188.67,-113.94
21210.21,-113.39
21231.74,-113.24
21253.27,-113.70
21274.80,-114.49
21296.34,-114.41
21317.87,-114.25
21339.40,-113.94
21360.94,-113.47
21382.47,-113.86
21404.00,-114.17
21425.54,-114.56
21447.07,-114.49
21468.60,-114.88
21490.14,-113.78
21511.67,-113.94
21533.20,-114.49
21554.74,-114.17
21576.27,-114.41
21597.80,-115.11
21619.34,-113.86
21640.87,-114.72
21662.40,-114.72
21683.94,-114.17
21705.47,-114.56
21727.00,-114.88
21748.54,-113.78
21770.07,-114.41
21791.60,-114.80
21813.13,-114.80
21834.67,-115.03
21856.20,-115.35
21877.73,-114.72
21899.27,-114.25
21920.80,-115.19
21942.33,-114.95
21963.87,-114.80
21985.40,-114.95
22006.93,-114.25
22028.47,-114.80
22050.00,-115.50
