Frequency (Hz),Power (dB),44100.0000,2048,0,2.0000,0,L+R
0.00,-81.59
21.53,-87.45
43.07,-104.25
64.60,-97.53
86.13,-86.74
107.67,-55.25
129.20,-48.22
150.73,-53.30
172.27,-83.70
193.80,-84.32
215.33,-73.85
236.87,-47.83
258.40,-39.78
279.93,-43.92
301.46,-69.08
323.00,-80.49
344.53,-74.09
366.06,-51.50
387.60,-42.36
409.13,-45.56
430.66,-67.29
452.20,-77.21
473.73,-67.91
495.26,-47.28
516.80,-37.05
538.33,-39.31
559.86,-58.30
581.40,-71.27
602.93,-64.16
624.46,-45.25
646.00,-33.68
667.53,-35.17
689.06,-51.89
710.60,-65.41
732.13,-59.71
753.66,-42.36
775.20,-29.47
796.73,-30.01
818.26,-45.02
839.79,-60.49
861.33,-60.88
882.86,-45.09
904.39,-30.72
925.93,-30.40
947.46,-43.84
968.99,-60.96
990.53,-66.35
1012.06,-52.13
1033.59,-36.03
1055.13,-34.86
1076.66,-46.81
1098.19,-65.02
1119.73,-67.52
1141.26,-53.61
1162.79,-35.48
1184.33,-33.45
1205.86,-44.16
1227.39,-64.00
1248.93,-68.93
1270.46,-56.19
1291.99,-35.56
1313.53,-32.67
1335.06,-42.20
1356.59,-64.00
1378.13,-71.35
1399.66,-60.64
1421.19,-36.89
1442.72,-33.06
1464.26,-41.50
1485.79,-66.27
1507.32,-76.43
1528.86,-75.10
1550.39,-47.20
1571.92,-42.52
1593.46,-49.86
1614.99,-79.16
1636.52,-90.11
1658.06,-91.67
1679.59,-52.91
1701.12,-47.28
1722.66,-53.61
1744.19,-91.82
1765.72,-92.21
1787.26,-81.98
1808.79,-47.44
1830.32,-40.80
1851.86,-46.19
1873.39,-80.26
1894.92,-84.40
1916.46,-74.32
1937.99,-46.89
1959.52,-39.23
1981.05,-43.69
2002.59,-70.49
2024.12,-81.82
2045.65,-75.02
2067.19,-51.27
2088.72,-42.52
2110.25,-46.11
2131.79,-68.77
2153.32,-80.57
2174.85,-74.09
2196.39,-52.91
2217.92,-42.98
2239.45,-45.64
2260.99,-65.41
2282.52,-78.62
2304.05,-74.32
2325.59,-55.02
2347.12,-43.92
2368.65,-45.72
2390.19,-63.22
2411.72,-78.07
2433.25,-86.51
2454.79,-74.01
2476.32,-61.50
2497.85,-62.36
2519.38,-77.76
2540.92,-86.90
2562.45,-78.38
2583.98,-61.66
2605.52,-47.75
2627.05,-47.75
2648.58,-61.66
2670.12,-77.99
2691.65,-79.16
2713.18,-63.93
2734.72,-48.45
2756.25,-47.59
2777.78,-60.02
2799.32,-77.99
2820.85,-87.53
2842.38,-88.39
2863.92,-72.05
2885.45,-70.33
2906.98,-81.43
2928.52,-99.48
2950.05,-97.14
2971.58,-83.38
2993.12,-63.69
3014.65,-61.04
3036.18,-70.96
3057.71,-91.82
3079.25,-96.51
3100.78,-84.63
3122.31,-62.05
3143.85,-58.53
3165.38,-67.37
3186.91,-90.96
3208.45,-99.87
3229.98,-92.06
3251.51,-65.57
3273.05,-61.11
3294.58,-68.85
3316.11,-96.28
3337.65,-106.59
3359.18,-105.73
3380.71,-72.21
3402.25,-66.90
3423.78,-73.54
3445.31,-107.77
3466.85,-117.14
3488.38,-113.16
3509.91,-73.62
3531.45,-67.29
3552.98,-72.99
3574.51,-111.83
3596.04,-114.33
3617.58,-105.03
3639.11,-75.96
3660.64,-68.69
3682.18,-73.46
3703.71,-102.30
3725.24,-114.10
3746.78,-112.84
3768.31,-88.46
3789.84,-80.10
3811.38,-83.93
3832.91,-107.77
3854.44,-119.41
3875.98,-115.81
3897.51,-94.17
3919.04,-84.71
3940.58,-87.60
3962.11,-108.00
3983.64,-110.19
4005.18,-100.26
4026.71,-80.26
4048.24,-69.55
4069.78,-71.58
4091.31,-89.71
4112.84,-103.00
4134.38,-98.31
4155.91,-80.10
4177.44,-68.15
4198.97,-69.32
4220.51,-85.49
4242.04,-100.50
4263.57,-101.67
4285.11,-85.26
4306.64,-71.98
4328.17,-72.21
4349.71,-86.67
4371.24,-102.37
4392.77,-100.89
4414.31,-85.18
4435.84,-70.26
4457.37,-69.63
4478.91,-82.60
4500.44,-99.64
4521.97,-101.44
4543.51,-87.06
4565.04,-70.33
4586.57,-68.93
4608.11,-80.49
4629.64,-99.33
4651.17,-107.37
4672.71,-96.98
4694.24,-78.23
4715.77,-75.88
4737.30,-86.20
4758.84,-106.67
4780.37,-114.17
4801.90,-103.78
4823.44,-82.37
4844.97,-79.16
4866.50,-88.31
4888.04,-111.05
4909.57,-118.63
4931.10,-108.63
4952.64,-83.54
4974.17,-79.40
4995.70,-87.45
5017.24,-113.24
5038.77,-120.74
5060.30,-111.59
5081.84,-80.88
5103.37,-75.88
5124.90,-82.84
5146.44,-114.17
5167.97,-123.94
5189.50,-127.07
5211.04,-80.10
5232.57,-74.09
5254.10,-80.10
5275.63,-125.50
5297.17,-121.83
5318.70,-111.83
5340.23,-80.26
5361.77,-73.30
5383.30,-78.38
5404.83,-109.64
5426.37,-120.82
5447.90,-119.33
5469.43,-94.09
5490.97,-86.12
5512.50,-90.26
5534.03,-115.42
5555.57,-123.32
5577.10,-114.56
5598.63,-91.75
5620.17,-82.68
5641.70,-85.89
5663.23,-107.45
5684.77,-118.86
5706.30,-112.14
5727.83,-91.67
5749.37,-81.43
5770.90,-83.78
5792.43,-102.76
5813.96,-116.28
5835.50,-115.66
5857.03,-97.29
5878.56,-85.81
5900.10,-87.29
5921.63,-104.17
5943.16,-119.33
5964.70,-121.36
5986.23,-103.78
6007.76,-90.81
6029.30,-91.43
6050.83,-106.28
6072.36,-117.22
6093.90,-109.33
6115.43,-93.00
6136.96,-78.62
6158.50,-78.31
6180.03,-91.75
6201.56,-108.31
6223.10,-108.94
6244.63,-94.09
6266.16,-78.07
6287.70,-76.90
6309.23,-88.93
6330.76,-107.30
6352.29,-116.52
6373.83,-111.52
6395.36,-93.78
6416.89,-91.75
6438.43,-102.45
6459.96,-121.99
6481.49,-126.99
6503.03,-114.64
6524.56,-94.32
6546.09,-91.43
6567.63,-100.97
6589.16,-121.05
6610.69,-114.17
6632.23,-101.05
6653.76,-77.21
6675.29,-73.46
6696.83,-81.82
6718.36,-106.36
6739.89,-114.41
6761.43,-104.87
6782.96,-76.43
6804.49,-71.74
6826.03,-79.09
6847.56,-108.16
6869.09,-118.39
6890.63,-120.19
6912.16,-82.99
6933.69,-77.37
6955.22,-83.70
6976.76,-123.00
6998.29,-126.21
7019.82,-115.66
7041.36,-80.57
7062.89,-73.93
7084.42,-79.32
7105.96,-113.31
7127.49,-116.67
7149.02,-106.91
7170.56,-79.40
7192.09,-71.74
7213.62,-76.20
7235.16,-103.00
7256.69,-112.92
7278.22,-105.50
7299.76,-81.82
7321.29,-73.07
7342.82,-76.66
7364.36,-99.33
7385.89,-110.34
7407.42,-103.39
7428.96,-82.13
7450.49,-72.29
7472.02,-74.95
7493.55,-94.64
7515.09,-105.34
7536.62,-97.53
7558.15,-78.15
7579.69,-67.05
7601.22,-68.85
7622.75,-86.35
7644.29,-100.50
7665.82,-98.94
7687.35,-81.35
7708.89,-68.93
7730.42,-69.87
7751.95,-85.49
7773.49,-101.20
7795.02,-109.56
7816.55,-96.12
7838.09,-82.21
7859.62,-82.21
7881.15,-95.89
7902.69,-103.16
7924.22,-94.56
7945.75,-78.85
7967.29,-63.38
7988.82,-62.52
8010.35,-74.95
8031.88,-91.82
8053.42,-89.09
8074.95,-74.55
8096.48,-57.13
8118.02,-55.41
8139.55,-66.58
8161.08,-85.81
8182.62,-89.32
8204.15,-75.96
8225.68,-56.35
8247.22,-53.77
8268.75,-63.69
8290.28,-84.87
8311.82,-93.47
8333.35,-82.84
8354.88,-60.33
8376.42,-56.89
8397.95,-65.65
8419.48,-89.40
8441.02,-94.40
8462.55,-82.29
8484.08,-55.64
8505.62,-51.27
8527.15,-58.93
8548.68,-86.04
8570.21,-95.34
8591.75,-89.09
8613.28,-55.49
8634.81,-50.17
8656.35,-56.82
8677.88,-91.04
8699.41,-101.51
8720.95,-102.45
8742.48,-62.91
8764.01,-56.66
8785.55,-62.36
8807.08,-102.22
8828.61,-105.34
8850.15,-95.58
8871.68,-66.19
8893.21,-58.93
8914.75,-63.69
8936.28,-92.45
8957.81,-101.36
8979.35,-92.61
9000.88,-67.83
9022.41,-59.47
9043.95,-63.30
9065.48,-87.29
9087.01,-99.72
9108.54,-96.51
9130.08,-74.63
9151.61,-65.18
9173.14,-68.15
9194.68,-88.85
9216.21,-101.51
9237.74,-97.22
9259.28,-77.37
9280.81,-66.74
9302.34,-68.85
9323.88,-86.98
9345.41,-98.94
9366.94,-91.43
9388.48,-72.99
9410.01,-61.11
9431.54,-62.29
9453.08,-78.54
9474.61,-93.31
9496.14,-91.20
9517.68,-74.24
9539.21,-60.88
9560.74,-61.27
9582.28,-75.73
9603.81,-92.06
9625.34,-97.92
9646.88,-83.31
9668.41,-68.38
9689.94,-67.83
9711.47,-80.81
9733.01,-98.08
9754.54,-101.12
9776.07,-86.82
9797.61,-70.10
9819.14,-68.69
9840.67,-80.26
9862.21,-98.94
9883.74,-102.69
9905.27,-89.25
9926.81,-70.49
9948.34,-68.15
9969.87,-78.54
9991.41,-98.86
10012.94,-105.19
10034.47,-93.23
10056.01,-71.82
10077.54,-68.69
10099.07,-77.84
10120.61,-100.50
10142.14,-108.00
10163.67,-97.22
10185.21,-72.21
10206.74,-68.15
10228.27,-76.27
10249.80,-101.98
10271.34,-110.27
10292.87,-100.42
10314.40,-69.71
10335.94,-64.71
10357.47,-71.74
10379.00,-102.76
10400.54,-112.92
10422.07,-116.36
10443.60,-72.05
10465.14,-66.04
10486.67,-72.13
10508.20,-120.42
10529.74,-119.10
10551.27,-109.33
10572.80,-77.29
10594.34,-70.33
10615.87,-75.41
10637.40,-106.59
10658.94,-113.55
10680.47,-104.56
10702.00,-78.54
10723.54,-70.57
10745.07,-74.71
10766.60,-100.11
10788.13,-111.91
10809.67,-108.31
10831.20,-85.73
10852.73,-76.66
10874.27,-79.95
10895.80,-101.67
10917.33,-115.27
10938.87,-122.46
10960.40,-104.72
10981.93,-94.48
11003.47,-96.90
11025.00,-115.81
11046.53,-127.07
11068.07,-119.33
11089.60,-100.50
11111.13,-89.01
11132.67,-90.50
11154.20,-107.30
11175.73,-121.52
11197.27,-118.32
11218.80,-101.05
11240.33,-88.23
11261.87,-88.85
11283.40,-103.86
11304.93,-118.71
11326.46,-114.64
11348.00,-98.47
11369.53,-84.09
11391.06,-83.85
11412.60,-97.29
11434.13,-114.17
11455.66,-117.22
11477.20,-102.61
11498.73,-86.59
11520.26,-85.49
11541.80,-97.53
11563.33,-115.50
11584.86,-116.05
11606.40,-101.83
11627.93,-83.70
11649.46,-81.74
11671.00,-92.53
11692.53,-112.22
11714.06,-116.13
11735.60,-103.08
11757.13,-82.60
11778.66,-79.79
11800.20,-89.32
11821.73,-111.20
11843.26,-120.35
11864.79,-112.30
11886.33,-88.78
11907.86,-85.03
11929.39,-93.47
11950.93,-118.08
11972.46,-127.38
11993.99,-120.66
12015.53,-92.53
12037.06,-87.84
12058.59,-95.18
12080.13,-124.18
12101.66,-135.19
12123.19,-141.76
12144.73,-106.59
12166.26,-100.97
12187.79,-107.37
12209.33,-145.04
12230.86,-145.82
12252.39,-137.69
12273.93,-103.39
12295.46,-96.83
12316.99,-102.22
12338.53,-130.82
12360.06,-123.79
12381.59,-112.84
12403.13,-85.03
12424.66,-77.37
12446.19,-81.90
12467.72,-108.78
12489.26,-117.92
12510.79,-109.02
12532.32,-85.18
12553.86,-76.51
12575.39,-80.02
12596.92,-102.92
12618.46,-116.05
12639.99,-118.55
12661.52,-97.84
12683.06,-88.00
12704.59,-90.65
12726.12,-110.50
12747.66,-124.10
12769.19,-126.44
12790.72,-107.92
12812.26,-96.90
12833.79,-98.70
12855.32,-116.36
12876.86,-125.74
12898.39,-116.21
12919.92,-98.08
12941.46,-85.73
12962.99,-86.59
12984.52,-102.22
13006.05,-117.22
13027.59,-115.66
13049.12,-99.25
13070.65,-85.42
13092.19,-85.49
13113.72,-99.48
13135.25,-115.97
13156.79,-120.66
13178.32,-106.28
13199.85,-90.89
13221.39,-90.11
13242.92,-102.61
13264.45,-120.11
13285.99,-123.00
13307.52,-109.02
13329.05,-91.67
13350.59,-90.03
13372.12,-101.20
13393.65,-120.58
13415.19,-130.11
13436.72,-120.89
13458.25,-101.28
13479.79,-98.70
13501.32,-108.63
13522.85,-129.41
13544.38,-132.62
13565.92,-119.88
13587.45,-97.45
13608.98,-94.01
13630.52,-102.84
13652.05,-126.36
13673.58,-133.40
13695.12,-122.61
13716.65,-96.12
13738.18,-91.75
13759.72,-99.48
13781.25,-126.44
13802.78,-134.80
13824.32,-126.99
13845.85,-93.54
13867.38,-88.23
13888.92,-94.95
13910.45,-128.86
13931.98,-138.71
13953.52,-135.98
13975.05,-95.50
13996.58,-89.25
14018.12,-94.95
14039.65,-135.27
14061.18,-139.10
14082.71,-129.80
14104.25,-100.42
14125.78,-93.15
14147.31,-97.92
14168.85,-127.15
14190.38,-138.63
14211.91,-130.82
14233.45,-105.66
14254.98,-97.29
14276.51,-101.20
14298.05,-124.88
14319.58,-129.26
14341.11,-119.49
14362.65,-97.29
14384.18,-87.92
14405.71,-90.89
14427.25,-111.59
14448.78,-123.79
14470.31,-118.24
14491.85,-98.31
14513.38,-87.76
14534.91,-89.79
14556.45,-108.16
14577.98,-122.38
14599.51,-120.35
14621.04,-101.90
14642.58,-89.95
14664.11,-91.20
14685.64,-107.37
14707.18,-120.97
14728.71,-115.42
14750.24,-98.47
14771.78,-85.10
14793.31,-85.49
14814.84,-99.95
14836.38,-115.81
14857.91,-115.35
14879.44,-99.64
14900.98,-84.71
14922.51,-84.24
14944.04,-97.22
14965.58,-114.64
14987.11,-120.42
15008.64,-106.20
15030.18,-89.48
15051.71,-88.15
15073.24,-99.72
15094.78,-118.55
15116.31,-127.30
15137.84,-115.66
15159.38,-96.83
15180.91,-94.56
15202.44,-104.87
15223.97,-125.11
15245.51,-130.43
15267.04,-117.77
15288.57,-96.36
15310.11,-93.23
15331.64,-102.37
15353.17,-125.04
15374.71,-134.80
15396.24,-129.41
15417.77,-104.64
15439.31,-100.65
15460.84,-108.70
15482.37,-134.41
15503.91,-144.57
15525.44,-149.03
15546.97,-125.58
15568.51,-120.58
15590.04,-127.61
15611.57,-154.42
15633.11,-156.68
15654.64,-151.92
15676.17,-108.16
15697.71,-102.22
15719.24,-108.31
15740.77,-149.73
15762.30,-144.26
15783.84,-133.63
15805.37,-101.59
15826.90,-94.64
15848.44,-99.79
15869.97,-130.97
15891.50,-135.35
15913.04,-125.58
15934.57,-99.40
15956.10,-91.43
15977.64,-95.58
15999.17,-120.97
16020.70,-128.00
16042.24,-118.55
16063.77,-95.58
16085.30,-86.51
16106.84,-89.79
16128.37,-111.52
16149.90,-123.86
16171.44,-119.02
16192.97,-98.47
16214.50,-88.31
16236.04,-90.65
16257.57,-109.80
16279.10,-123.63
16300.63,-122.22
16322.17,-103.55
16343.70,-92.06
16365.23,-93.54
16386.77,-110.42
16408.30,-124.72
16429.83,-122.61
16451.37,-105.42
16472.90,-92.61
16494.43,-93.23
16515.97,-108.31
16537.50,-118.16
16559.03,-109.33
16580.57,-92.84
16602.10,-78.54
16623.63,-78.31
16645.17,-91.75
16666.70,-108.47
16688.23,-109.48
16709.77,-94.40
16731.30,-78.38
16752.83,-77.29
16774.37,-89.40
16795.90,-107.77
16817.43,-113.47
16838.96,-99.48
16860.50,-81.43
16882.03,-79.40
16903.56,-90.18
16925.10,-109.80
16946.63,-113.63
16968.16,-100.81
16989.70,-80.42
17011.23,-77.52
17032.76,-87.14
17054.30,-108.94
17075.83,-117.53
17097.36,-108.55
17118.90,-85.10
17140.43,-81.35
17161.96,-89.79
17183.50,-114.25
17205.03,-123.16
17226.56,-114.25
17248.10,-86.12
17269.63,-81.51
17291.16,-88.85
17312.70,-117.61
17334.23,-127.61
17355.76,-125.19
17377.29,-87.76
17398.83,-82.13
17420.36,-88.54
17441.89,-126.83
17463.43,-134.88
17484.96,-126.13
17506.49,-90.50
17528.03,-83.93
17549.56,-89.32
17571.09,-124.10
17592.63,-128.86
17614.16,-119.49
17635.69,-91.82
17657.23,-84.17
17678.76,-88.70
17700.29,-115.81
17721.83,-126.21
17743.36,-119.17
17764.89,-95.34
17786.43,-86.67
17807.96,-90.26
17829.49,-113.16
17851.03,-125.27
17872.56,-120.58
17894.09,-99.40
17915.63,-89.64
17937.16,-92.29
17958.69,-112.30
17980.22,-126.29
18001.76,-131.60
18023.29,-112.69
18044.82,-101.67
18066.36,-103.47
18087.89,-120.89
18109.42,-131.76
18130.96,-123.71
18152.49,-105.73
18174.02,-93.39
18195.56,-94.32
18217.09,-109.88
18238.62,-123.86
18260.16,-118.55
18281.69,-101.90
18303.22,-88.07
18324.76,-88.15
18346.29,-102.14
18367.82,-118.39
18389.36,-119.57
18410.89,-104.48
18432.42,-89.09
18453.96,-88.23
18475.49,-100.81
18497.02,-118.71
18518.55,-125.43
18540.09,-112.06
18561.62,-94.79
18583.15,-93.07
18604.69,-104.33
18626.22,-123.39
18647.75,-124.33
18669.29,-110.50
18690.82,-90.96
18712.35,-88.39
18733.89,-98.39
18755.42,-119.33
18776.95,-126.29
18798.49,-114.72
18820.02,-92.29
18841.55,-88.85
18863.09,-97.68
18884.62,-121.21
18906.15,-130.11
18927.69,-122.14
18949.22,-95.89
18970.75,-91.59
18992.29,-99.33
19013.82,-126.36
19035.35,-136.21
19056.88,-130.74
19078.42,-97.61
19099.95,-92.29
19121.48,-99.01
19143.02,-132.38
19164.55,-141.68
19186.08,-138.32
19207.62,-97.92
19229.15,-91.67
19250.68,-97.45
19272.22,-136.84
19293.75,-132.30
19315.28,-121.52
19336.82,-91.75
19358.35,-84.48
19379.88,-89.32
19401.42,-118.32
19422.95,-126.99
19444.48,-118.39
19466.02,-93.47
19487.55,-85.10
19509.08,-89.01
19530.62,-113.24
19552.15,-124.64
19573.68,-117.53
19595.21,-95.34
19616.75,-85.89
19638.28,-88.93
19659.81,-109.64
19681.35,-119.17
19702.88,-110.81
19724.41,-90.73
19745.95,-80.10
19767.48,-82.21
19789.01,-100.50
19810.55,-113.39
19832.08,-108.00
19853.61,-89.71
19875.15,-77.84
19896.68,-79.01
19918.21,-95.34
19939.75,-109.64
19961.28,-106.67
19982.81,-89.79
20004.35,-76.51
20025.88,-76.82
20047.41,-91.43
20068.95,-107.37
20090.48,-108.94
20112.01,-93.47
20133.54,-78.62
20155.08,-78.15
20176.61,-91.20
20198.14,-108.70
20219.68,-118.08
20241.21,-109.25
20262.74,-92.61
20284.28,-91.20
20305.81,-102.84
20327.34,-119.96
20348.88,-113.47
20370.41,-99.01
20391.94,-80.26
20413.48,-77.99
20435.01,-88.39
20456.54,-108.63
20478.08,-113.55
20499.61,-101.12
20521.14,-79.79
20542.68,-76.66
20564.21,-85.89
20585.74,-108.47
20607.28,-117.06
20628.81,-108.00
20650.34,-83.31
20671.88,-79.24
20693.41,-87.37
20714.94,-113.08
20736.47,-122.85
20758.01,-118.08
20779.54,-88.07
20801.07,-83.07
20822.61,-90.18
20844.14,-120.97
20865.67,-131.52
20887.21,-134.96
20908.74,-91.12
20930.27,-85.18
20951.81,-91.28
20973.34,-127.46
20994.87,-127.15
21016.41,-116.60
21037.94,-84.32
21059.47,-77.45
21081.01,-82.53
21102.54,-113.63
21124.07,-121.36
21145.61,-112.14
21167.14,-85.96
21188.67,-77.99
21210.21,-82.21
21231.74,-107.69
21253.27,-120.03
21274.80,-117.38
21296.34,-94.48
21317.87,-85.49
21339.40,-88.78
21360.94,-109.33
21382.47,-122.46
21404.00,-115.11
21425.54,-94.40
21447.07,-84.24
21468.60,-86.59
21490.14,-104.72
21511.67,-118.47
21533.20,-112.30
21554.74,-93.39
21576.27,-81.98
21597.80,-83.46
21619.34,-100.19
21640.87,-114.64
21662.40,-112.61
21683.94,-95.34
21705.47,-82.53
21727.00,-82.60
21748.54,-91.59
21770.07,-112.06
21791.60,-111.28
21813.13,-95.11
21834.67,-80.57
21856.20,-78.46
21877.73,-83.23
21899.27,-103.47
21920.80,-110.97
21942.33,-96.43
21963.87,-80.10
21985.40,-76.82
22006.93,-80.42
22028.47,-98.47
22050.00,-110.50
