Frequency (Hz),Power (dB),44100.0000,2048,0,2.0000,0,L+R
0.00,-98.86
21.53,-95.89
43.07,-90.26
64.60,-82.53
86.13,-70.96
107.67,-38.69
129.20,-31.73
150.73,-36.73
172.27,-68.62
193.80,-79.48
215.33,-70.26
236.87,-43.84
258.40,-35.79
279.93,-39.94
301.46,-65.49
323.00,-77.91
344.53,-71.27
366.06,-48.22
387.60,-39.08
409.13,-42.28
430.66,-64.08
452.20,-69.40
473.73,-59.16
495.26,-38.30
516.80,-27.98
538.33,-30.32
559.86,-49.39
581.40,-63.85
602.93,-66.27
624.46,-47.59
646.00,-35.95
667.53,-37.44
689.06,-54.39
710.60,-67.52
732.13,-59.32
753.66,-41.58
775.20,-28.61
796.73,-29.23
818.26,-44.31
839.79,-60.49
861.33,-69.24
882.86,-57.44
904.39,-42.91
925.93,-42.59
947.46,-56.11
968.99,-72.76
990.53,-69.47
1012.06,-53.92
1033.59,-37.67
1055.13,-36.50
1076.66,-48.53
1098.19,-67.13
1119.73,-76.90
1141.26,-70.41
1162.79,-52.13
1184.33,-50.10
1205.86,-60.88
1227.39,-80.49
1248.93,-77.91
1270.46,-63.93
1291.99,-43.14
1313.53,-40.25
1335.06,-49.78
1356.59,-72.05
1378.13,-76.90
1399.66,-63.93
1421.19,-39.78
1442.72,-35.95
1464.26,-44.39
1485.79,-69.55
1507.32,-79.63
1528.86,-70.26
1550.39,-41.03
1571.92,-36.34
1593.46,-43.69
1614.99,-73.46
1636.52,-84.79
1658.06,-88.31
1679.59,-47.59
1701.12,-41.89
1722.66,-48.22
1744.19,-89.64
1765.72,-101.28
1787.26,-104.09
1808.79,-69.47
1830.32,-62.75
1851.86,-68.15
1873.39,-103.39
1894.92,-99.72
1916.46,-88.54
1937.99,-60.57
1959.52,-52.83
1981.05,-57.28
2002.59,-84.63
2024.12,-96.98
2045.65,-91.28
2067.19,-67.37
2088.72,-58.61
2110.25,-62.13
2131.79,-84.79
2153.32,-84.17
2174.85,-73.69
2196.39,-52.13
2217.92,-42.20
2239.45,-44.86
2260.99,-64.86
2282.52,-78.77
2304.05,-75.49
2325.59,-55.88
2347.12,-44.78
2368.65,-46.50
2390.19,-64.08
2411.72,-78.54
2433.25,-73.46
2454.79,-55.25
2476.32,-42.83
2497.85,-43.69
2519.38,-59.32
2540.92,-75.10
2562.45,-76.04
2583.98,-59.24
2605.52,-45.25
2627.05,-45.25
2648.58,-59.24
2670.12,-76.20
2691.65,-85.03
2713.18,-73.69
2734.72,-57.99
2756.25,-57.13
2777.78,-69.71
2799.32,-87.37
2820.85,-85.81
2842.38,-70.88
2863.92,-53.30
2885.45,-51.58
2906.98,-62.75
2928.52,-82.37
2950.05,-85.96
2971.58,-72.13
2993.12,-52.21
3014.65,-49.63
3036.18,-59.55
3057.71,-81.04
3079.25,-83.38
3100.78,-70.02
3122.31,-47.13
3143.85,-43.61
3165.38,-52.44
3186.91,-76.51
3208.45,-85.89
3229.98,-75.02
3251.51,-47.83
3273.05,-43.37
3294.58,-51.11
3316.11,-79.01
3337.65,-90.11
3359.18,-86.82
3380.71,-51.58
3402.25,-46.27
3423.78,-52.91
3445.31,-88.39
3466.85,-99.95
3488.38,-100.34
3509.91,-58.93
3531.45,-52.60
3552.98,-58.38
3574.51,-100.34
3596.04,-110.97
3617.58,-102.45
3639.11,-72.68
3660.64,-65.33
3682.18,-70.10
3703.71,-98.94
3725.24,-96.36
3746.78,-85.26
3768.31,-60.10
3789.84,-51.66
3811.38,-55.49
3832.91,-79.71
3854.44,-93.07
3875.98,-96.36
3897.51,-74.55
3919.04,-65.02
3940.58,-67.99
3962.11,-88.85
3983.64,-101.12
4005.18,-93.00
4026.71,-72.76
4048.24,-62.05
4069.78,-64.08
4091.31,-82.45
4112.84,-96.36
4134.38,-90.03
4155.91,-71.35
4177.44,-59.39
4198.97,-60.57
4220.51,-76.82
4242.04,-92.29
4263.57,-92.76
4285.11,-75.57
4306.64,-62.13
4328.17,-62.44
4349.71,-76.98
4371.24,-93.47
4392.77,-99.95
4414.31,-84.79
4435.84,-69.71
4457.37,-69.16
4478.91,-82.21
4500.44,-99.79
4521.97,-103.16
4543.51,-88.31
4565.04,-71.43
4586.57,-69.94
4608.11,-81.59
4629.64,-100.19
4651.17,-96.83
4672.71,-82.29
4694.24,-63.22
4715.77,-60.96
4737.30,-71.27
4758.84,-92.14
4780.37,-102.14
4801.90,-94.32
4823.44,-72.52
4844.97,-69.32
4866.50,-78.54
4888.04,-101.51
4909.57,-106.36
4931.10,-93.62
4952.64,-68.07
4974.17,-64.00
4995.70,-72.05
5017.24,-98.47
5038.77,-107.06
5060.30,-95.65
5081.84,-64.00
5103.37,-58.93
5124.90,-65.96
5146.44,-98.08
5167.97,-109.64
5189.50,-117.22
5211.04,-64.86
5232.57,-58.85
5254.10,-64.86
5275.63,-119.72
5297.17,-112.30
5318.70,-100.81
5340.23,-68.38
5361.77,-61.35
5383.30,-66.43
5404.83,-98.47
5426.37,-109.88
5447.90,-101.12
5469.43,-74.55
5490.97,-66.51
5512.50,-70.65
5534.03,-96.36
5555.57,-109.48
5577.10,-116.36
5598.63,-95.58
5620.17,-86.43
5641.70,-89.64
5663.23,-111.52
5684.77,-122.46
5706.30,-115.58
5727.83,-95.11
5749.37,-84.79
5770.90,-87.14
5792.43,-105.81
5813.96,-103.78
5835.50,-93.78
5857.03,-74.63
5878.56,-63.07
5900.10,-64.55
5921.63,-81.59
5943.16,-96.04
5964.70,-90.03
5986.23,-72.37
6007.76,-59.39
6029.30,-60.02
6050.83,-75.10
6072.36,-91.12
6093.90,-89.95
6115.43,-73.46
6136.96,-58.93
6158.50,-58.69
6180.03,-72.21
6201.56,-89.40
6223.10,-91.98
6244.63,-76.66
6266.16,-60.41
6287.70,-59.32
6309.23,-71.35
6330.76,-89.95
6352.29,-95.73
6373.83,-81.67
6395.36,-63.38
6416.89,-61.43
6438.43,-72.13
6459.96,-92.29
6481.49,-101.12
6503.03,-89.40
6524.56,-68.62
6546.09,-65.72
6567.63,-75.34
6589.16,-97.53
6610.69,-108.00
6632.23,-106.83
6653.76,-82.92
6675.29,-79.09
6696.83,-87.60
6718.36,-112.06
6739.89,-110.42
6761.43,-97.68
6782.96,-68.62
6804.49,-63.85
6826.03,-71.27
6847.56,-100.97
6869.09,-111.99
6890.63,-106.20
6912.16,-65.41
6933.69,-59.71
6955.22,-66.11
6976.76,-106.83
6998.29,-112.22
7019.82,-101.12
7041.36,-65.10
7062.89,-58.46
7084.42,-63.85
7105.96,-99.72
7127.49,-105.81
7149.02,-94.87
7170.56,-66.82
7192.09,-59.08
7213.62,-63.61
7235.16,-90.96
7256.69,-102.76
7278.22,-94.40
7299.76,-70.26
7321.29,-61.50
7342.82,-65.02
7364.36,-88.07
7385.89,-101.28
7407.42,-97.61
7428.96,-76.04
7450.49,-66.19
7472.02,-68.85
7493.55,-88.78
7515.09,-103.00
7536.62,-111.59
7558.15,-101.59
7579.69,-90.50
7601.22,-92.29
7622.75,-109.64
7644.29,-111.75
7665.82,-101.98
7687.35,-83.85
7708.89,-71.43
7730.42,-72.29
7751.95,-88.00
7773.49,-102.61
7795.02,-95.65
7816.55,-78.70
7838.09,-64.79
7859.62,-64.79
7881.15,-78.85
7902.69,-95.50
7924.22,-94.40
7945.75,-78.54
7967.29,-62.99
7988.82,-62.13
8010.35,-74.71
8031.88,-92.76
8053.42,-95.97
8074.95,-81.20
8096.48,-63.69
8118.02,-61.97
8139.55,-73.15
8161.08,-92.76
8182.62,-99.72
8204.15,-86.43
8225.68,-66.58
8247.22,-64.00
8268.75,-73.93
8290.28,-95.42
8311.82,-105.03
8333.35,-95.34
8354.88,-72.52
8376.42,-69.01
8397.95,-77.84
8419.48,-101.83
8441.02,-112.61
8462.55,-117.77
8484.08,-92.53
8505.62,-88.15
8527.15,-95.89
8548.68,-123.39
8570.21,-133.55
8591.75,-135.43
8613.28,-102.61
8634.81,-97.29
8656.35,-104.01
8677.88,-135.66
8699.41,-129.10
8720.95,-117.46
8742.48,-74.95
8764.01,-68.62
8785.55,-74.32
8807.08,-116.28
8828.61,-113.00
8850.15,-101.59
8871.68,-71.51
8893.21,-64.24
8914.75,-69.01
8936.28,-98.54
8957.81,-107.53
8979.35,-97.37
9000.88,-72.05
9022.41,-63.69
9043.95,-67.52
9065.48,-91.90
9087.01,-104.48
9108.54,-97.68
9130.08,-75.34
9151.61,-65.80
9173.14,-68.77
9194.68,-89.71
9216.21,-103.55
9237.74,-102.14
9259.28,-81.90
9280.81,-71.19
9302.34,-73.30
9323.88,-91.67
9345.41,-106.36
9366.94,-115.19
9388.48,-112.69
9410.01,-100.89
9431.54,-102.14
9453.08,-117.61
9474.61,-116.44
9496.14,-106.75
9517.68,-89.48
9539.21,-76.04
9560.74,-76.35
9582.28,-90.96
9603.81,-107.37
9625.34,-106.98
9646.88,-90.89
9668.41,-75.88
9689.94,-75.34
9711.47,-88.39
9733.01,-105.50
9754.54,-100.97
9776.07,-85.65
9797.61,-68.85
9819.14,-67.44
9840.67,-79.09
9862.21,-98.08
9883.74,-101.12
9905.27,-86.82
9926.81,-67.83
9948.34,-65.57
9969.87,-75.96
9991.41,-96.75
10012.94,-104.33
10034.47,-91.59
10056.01,-69.87
10077.54,-66.74
10099.07,-75.96
10120.61,-98.94
10142.14,-109.02
10163.67,-100.58
10185.21,-75.18
10206.74,-71.04
10228.27,-79.16
10249.80,-105.42
10271.34,-116.44
10292.87,-119.02
10314.40,-88.00
10335.94,-82.99
10357.47,-90.03
10379.00,-121.83
10400.54,-132.85
10422.07,-135.35
10443.60,-77.05
10465.14,-71.04
10486.67,-77.13
10508.20,-134.49
10529.74,-129.80
10551.27,-118.47
10572.80,-85.89
10594.34,-78.93
10615.87,-84.09
10637.40,-115.97
10658.94,-114.02
10680.47,-102.92
10702.00,-76.35
10723.54,-68.30
10745.07,-72.52
10766.60,-98.31
10788.13,-108.23
10809.67,-98.47
10831.20,-75.26
10852.73,-66.11
10874.27,-69.40
10895.80,-91.36
10917.33,-104.48
10938.87,-98.31
10960.40,-77.37
10981.93,-67.13
11003.47,-69.47
11025.00,-88.70
11046.53,-102.92
11068.07,-101.28
11089.60,-82.13
11111.13,-70.65
11132.67,-72.13
11154.20,-89.09
11175.73,-104.33
11197.27,-108.00
11218.80,-90.73
11240.33,-77.76
11261.87,-78.38
11283.40,-93.54
11304.93,-109.48
11326.46,-108.78
11348.00,-92.29
11369.53,-77.84
11391.06,-77.60
11412.60,-91.12
11434.13,-108.39
11455.66,-114.95
11477.20,-100.65
11498.73,-84.48
11520.26,-83.38
11541.80,-95.50
11563.33,-112.30
11584.86,-105.34
11606.40,-90.57
11627.93,-72.37
11649.46,-70.41
11671.00,-81.20
11692.53,-101.28
11714.06,-104.09
11735.60,-90.26
11757.13,-69.55
11778.66,-66.74
11800.20,-76.27
11821.73,-98.47
11843.26,-106.52
11864.79,-94.40
11886.33,-70.41
11907.86,-66.58
11929.39,-75.10
11950.93,-100.11
11972.46,-110.50
11993.99,-102.76
12015.53,-73.77
12037.06,-69.08
12058.59,-76.51
12080.13,-105.97
12101.66,-117.30
12123.19,-119.88
12144.73,-79.95
12166.26,-74.32
12187.79,-80.73
12209.33,-121.05
12230.86,-132.15
12252.39,-125.50
12273.93,-89.32
12295.46,-82.76
12316.99,-88.15
12338.53,-124.33
12360.06,-127.85
12381.59,-117.06
12403.13,-88.93
12424.66,-81.27
12446.19,-85.73
12467.72,-113.24
12489.26,-116.13
12510.79,-105.50
12532.32,-81.27
12553.86,-72.52
12575.39,-76.12
12596.92,-99.25
12618.46,-108.86
12639.99,-99.25
12661.52,-77.60
12683.06,-67.68
12704.59,-70.41
12726.12,-90.50
12747.66,-104.01
12769.19,-98.08
12790.72,-78.38
12812.26,-67.29
12833.79,-69.08
12855.32,-86.74
12876.86,-101.59
12898.39,-100.26
12919.92,-82.13
12941.46,-69.71
12962.99,-70.65
12984.52,-86.35
13006.05,-102.22
13027.59,-105.66
13049.12,-89.09
13070.65,-75.18
13092.19,-75.18
13113.72,-89.25
13135.25,-106.12
13156.79,-114.10
13178.32,-100.65
13199.85,-85.03
13221.39,-84.24
13242.92,-96.83
13264.45,-114.33
13285.99,-110.89
13307.52,-95.89
13329.05,-78.46
13350.59,-76.74
13372.12,-88.00
13393.65,-107.53
13415.19,-112.84
13436.72,-99.25
13458.25,-79.48
13479.79,-76.90
13501.32,-86.90
13522.85,-108.16
13544.38,-108.70
13565.92,-95.26
13587.45,-72.52
13608.98,-69.08
13630.52,-77.91
13652.05,-101.83
13673.58,-110.34
13695.12,-98.62
13716.65,-71.66
13738.18,-67.29
13759.72,-75.02
13781.25,-102.76
13802.78,-113.70
13824.32,-108.78
13845.85,-74.09
13867.38,-68.77
13888.92,-75.49
13910.45,-110.50
13931.98,-121.99
13953.52,-122.53
13975.05,-79.87
13996.58,-73.54
14018.12,-79.32
14039.65,-122.61
14061.18,-129.65
14082.71,-119.17
14104.25,-89.01
14125.78,-81.74
14147.31,-86.51
14168.85,-116.13
14190.38,-119.10
14211.91,-108.16
14233.45,-82.76
14254.98,-74.48
14276.51,-78.31
14298.05,-102.76
14319.58,-115.97
14341.11,-115.42
14362.65,-93.31
14384.18,-83.78
14405.71,-86.74
14427.25,-107.77
14448.78,-112.45
14470.31,-102.37
14491.85,-82.06
14513.38,-71.43
14534.91,-73.46
14556.45,-91.98
14577.98,-105.81
14599.51,-99.56
14621.04,-80.88
14642.58,-68.93
14664.11,-70.10
14685.64,-86.51
14707.18,-101.90
14728.71,-100.81
14750.24,-83.54
14771.78,-70.10
14793.31,-70.49
14814.84,-85.10
14836.38,-101.51
14857.91,-105.42
14879.44,-89.56
14900.98,-74.55
14922.51,-74.01
14944.04,-87.06
14965.58,-104.72
14987.11,-113.00
15008.64,-100.26
15030.18,-83.38
15051.71,-82.06
15073.24,-93.70
15094.78,-112.53
15116.31,-114.10
15137.84,-99.72
15159.38,-80.81
15180.91,-78.54
15202.44,-88.93
15223.97,-109.64
15245.51,-119.49
15267.04,-111.05
15288.57,-89.48
15310.11,-86.28
15331.64,-95.50
15353.17,-118.08
15374.71,-116.21
15396.24,-103.08
15417.77,-77.84
15439.31,-73.77
15460.84,-81.90
15482.37,-108.08
15503.91,-116.67
15525.44,-105.34
15546.97,-74.01
15568.51,-69.01
15590.04,-76.12
15611.57,-107.84
15633.11,-119.33
15654.64,-126.29
15676.17,-74.79
15697.71,-68.85
15719.24,-74.95
15740.77,-128.71
15762.30,-123.32
15783.84,-111.83
15805.37,-79.01
15826.90,-72.05
15848.44,-77.21
15869.97,-109.64
15891.50,-121.52
15913.04,-114.56
15934.57,-87.84
15956.10,-79.87
15977.64,-84.09
15999.17,-109.95
16020.70,-122.30
16042.24,-115.58
16063.77,-92.29
16085.30,-83.23
16106.84,-86.51
16128.37,-108.55
16149.90,-119.57
16171.44,-110.58
16192.97,-89.64
16214.50,-79.40
16236.04,-81.74
16257.57,-101.05
16279.10,-114.72
16300.63,-108.55
16322.17,-89.40
16343.70,-77.91
16365.23,-79.40
16386.77,-96.51
16408.30,-109.80
16429.83,-101.83
16451.37,-84.09
16472.90,-71.19
16494.43,-71.82
16515.97,-86.98
16537.50,-102.92
16559.03,-101.44
16580.57,-84.87
16602.10,-70.49
16623.63,-70.26
16645.17,-83.78
16666.70,-100.97
16688.23,-104.72
16709.77,-89.40
16731.30,-73.30
16752.83,-72.21
16774.37,-84.32
16795.90,-102.84
16817.43,-111.28
16838.96,-98.94
16860.50,-80.73
16882.03,-78.77
16903.56,-89.56
16925.10,-109.64
16946.63,-118.55
16968.16,-107.77
16989.70,-87.14
17011.23,-84.32
17032.76,-93.93
17054.30,-115.81
17075.83,-116.21
17097.36,-102.92
17118.90,-79.01
17140.43,-75.26
17161.96,-83.78
17183.50,-108.70
17205.03,-119.49
17226.56,-114.64
17248.10,-85.89
17269.63,-81.20
17291.16,-88.62
17312.70,-118.00
17334.23,-127.22
17355.76,-116.60
17377.29,-76.74
17398.83,-71.12
17420.36,-77.52
17441.89,-117.30
17463.43,-123.39
17484.96,-112.38
17506.49,-75.73
17528.03,-69.16
17549.56,-74.63
17571.09,-111.05
17592.63,-117.69
17614.16,-106.83
17635.69,-78.46
17657.23,-70.88
17678.76,-75.34
17700.29,-103.00
17721.83,-115.35
17743.36,-109.41
17764.89,-85.10
17786.43,-76.35
17807.96,-79.95
17829.49,-103.16
17851.03,-116.44
17872.56,-114.64
17894.09,-93.07
17915.63,-83.23
17937.16,-85.96
17958.69,-106.05
17980.22,-117.22
18001.76,-108.16
18023.29,-88.39
18044.82,-77.29
18066.36,-79.09
18087.89,-96.83
18109.42,-111.83
18130.96,-116.99
18152.49,-99.87
18174.02,-87.45
18195.56,-88.39
18217.09,-104.17
18238.62,-113.86
18260.16,-104.87
18281.69,-87.84
18303.22,-74.01
18324.76,-74.09
18346.29,-88.15
18367.82,-104.80
18389.36,-102.76
18410.89,-86.82
18432.42,-71.35
18453.96,-70.49
18475.49,-83.15
18497.02,-101.12
18518.55,-104.80
18540.09,-90.11
18561.62,-72.68
18583.15,-71.04
18604.69,-82.29
18626.22,-101.75
18647.75,-109.88
18669.29,-97.22
18690.82,-77.52
18712.35,-74.95
18733.89,-84.95
18755.42,-106.36
18776.95,-116.13
18798.49,-107.92
18820.02,-85.26
18841.55,-81.82
18863.09,-90.73
18884.62,-114.49
18906.15,-123.32
18927.69,-112.30
18949.22,-85.42
18970.75,-81.12
18992.29,-88.85
19013.82,-116.44
19035.35,-127.46
19056.88,-124.96
19078.42,-90.57
19099.95,-85.26
19121.48,-91.98
19143.02,-126.60
19164.55,-135.66
19186.08,-125.19
19207.62,-81.27
19229.15,-75.02
19250.68,-80.81
19272.22,-123.71
19293.75,-119.17
19315.28,-107.77
19336.82,-77.45
19358.35,-70.18
19379.88,-74.95
19401.42,-104.80
19422.95,-113.94
19444.48,-103.86
19466.02,-78.38
19487.55,-70.10
19509.08,-74.01
19530.62,-98.47
19552.15,-111.20
19573.68,-105.58
19595.21,-83.07
19616.75,-73.62
19638.28,-76.66
19659.81,-97.68
19681.35,-111.52
19702.88,-111.99
19724.41,-91.82
19745.95,-81.20
19767.48,-83.31
19789.01,-101.83
19810.55,-116.21
19832.08,-114.49
19853.61,-95.89
19875.15,-84.01
19896.68,-85.18
19918.21,-101.67
19939.75,-116.44
19961.28,-111.75
19982.81,-94.40
20004.35,-81.04
20025.88,-81.35
20047.41,-96.04
20068.95,-112.30
20090.48,-111.13
20112.01,-95.03
20133.54,-80.10
20155.08,-79.56
20176.61,-92.68
20198.14,-109.64
20219.68,-105.34
20241.21,-90.03
20262.74,-73.30
20284.28,-71.90
20305.81,-83.62
20327.34,-102.53
20348.88,-105.73
20370.41,-91.51
20391.94,-72.68
20413.48,-70.41
20435.01,-80.81
20456.54,-101.51
20478.08,-109.64
20499.61,-97.45
20521.14,-75.80
20542.68,-72.68
20564.21,-81.98
20585.74,-104.87
20607.28,-115.11
20628.81,-109.25
20650.34,-84.09
20671.88,-80.02
20693.41,-88.15
20714.94,-114.25
20736.47,-124.33
20758.01,-116.83
20779.54,-85.73
20801.07,-80.73
20822.61,-87.84
20844.14,-119.41
20865.67,-130.82
20887.21,-134.57
20908.74,-81.98
20930.27,-76.04
20951.81,-82.13
20973.34,-134.18
20994.87,-133.71
21016.41,-122.22
21037.94,-89.25
21059.47,-82.29
21081.01,-87.45
21102.54,-119.57
21124.07,-118.08
21145.61,-106.98
21167.14,-80.18
21188.67,-72.21
21210.21,-76.43
21231.74,-102.37
21253.27,-112.30
21274.80,-102.76
21296.34,-79.40
21317.87,-70.33
21339.40,-73.62
21360.94,-95.73
21382.47,-108.78
21404.00,-103.55
21425.54,-82.60
21447.07,-72.37
21468.60,-74.79
21490.14,-94.09
21511.67,-108.31
21533.20,-108.78
21554.74,-89.87
21576.27,-78.38
21597.80,-79.87
21619.34,-96.43
21640.87,-111.99
21662.40,-113.55
21683.94,-96.20
21705.47,-83.31
21727.00,-83.07
21748.54,-90.57
21770.07,-112.45
21791.60,-112.38
21813.13,-96.12
21834.67,-81.59
21856.20,-78.85
21877.73,-83.15
21899.27,-103.39
21920.80,-115.58
21942.33,-107.45
21963.87,-89.01
21985.40,-78.93
22006.93,-80.96
22028.47,-99.01
22050.00,-111.67
