Frequency (Hz),Power (dB),44100.0000,2048,0,2.0000,0,L+R
0.00,-32.28
21.53,-38.30
43.07,-76.66
64.60,-69.40
86.13,-58.14
107.67,-26.03
129.20,-19.07
150.73,-24.07
172.27,-55.80
193.80,-67.99
215.33,-66.90
236.87,-40.80
258.40,-32.75
279.93,-36.89
301.46,-62.36
323.00,-74.24
344.53,-69.63
366.06,-46.97
387.60,-37.83
409.13,-41.03
430.66,-62.75
452.20,-74.55
473.73,-67.91
495.26,-47.28
516.80,-36.97
538.33,-39.31
559.86,-58.30
581.40,-72.05
602.93,-70.26
624.46,-51.66
646.00,-40.01
667.53,-41.50
689.06,-58.38
710.60,-73.38
732.13,-76.98
753.66,-60.57
775.20,-47.59
796.73,-48.22
818.26,-63.22
839.79,-78.85
861.33,-77.52
882.86,-61.35
904.39,-46.89
925.93,-46.58
947.46,-60.02
968.99,-76.20
990.53,-73.30
1012.06,-58.14
1033.59,-41.89
1055.13,-40.80
1076.66,-52.83
1098.19,-70.96
1119.73,-73.38
1141.26,-59.55
1162.79,-41.34
1184.33,-39.31
1205.86,-50.02
1227.39,-70.02
1248.93,-77.05
1270.46,-65.41
1291.99,-44.70
1313.53,-41.81
1335.06,-51.35
1356.59,-73.54
1378.13,-82.76
1399.66,-75.02
1421.19,-51.11
1442.72,-47.28
1464.26,-55.72
1485.79,-80.81
1507.32,-90.34
1528.86,-81.59
1550.39,-52.52
1571.92,-47.83
1593.46,-55.17
1614.99,-84.79
1636.52,-94.48
1658.06,-88.39
1679.59,-47.75
1701.12,-42.05
1722.66,-48.38
1744.19,-89.64
1765.72,-93.47
1787.26,-82.06
1808.79,-46.42
1830.32,-39.78
1851.86,-45.17
1873.39,-80.26
1894.92,-85.73
1916.46,-75.49
1937.99,-47.59
1959.52,-39.86
1981.05,-44.31
2002.59,-71.43
2024.12,-81.43
2045.65,-72.99
2067.19,-49.00
2088.72,-40.17
2110.25,-43.77
2131.79,-66.58
2153.32,-77.84
2174.85,-70.49
2196.39,-49.16
2217.92,-39.23
2239.45,-41.81
2260.99,-61.74
2282.52,-74.48
2304.05,-69.47
2325.59,-50.02
2347.12,-38.92
2368.65,-40.64
2390.19,-58.22
2411.72,-72.44
2433.25,-70.80
2454.79,-53.14
2476.32,-40.64
2497.85,-41.50
2519.38,-57.21
2540.92,-72.68
2562.45,-75.18
2583.98,-59.24
2605.52,-45.33
2627.05,-45.33
2648.58,-59.32
2670.12,-76.12
2691.65,-82.99
2713.18,-69.71
2734.72,-54.16
2756.25,-53.30
2777.78,-65.80
2799.32,-83.31
2820.85,-81.74
2842.38,-66.90
2863.92,-49.39
2885.45,-47.59
2906.98,-58.77
2928.52,-77.84
2950.05,-79.24
2971.58,-65.72
2993.12,-45.88
3014.65,-43.30
3036.18,-53.22
3057.71,-74.40
3079.25,-80.26
3100.78,-68.30
3122.31,-45.56
3143.85,-42.05
3165.38,-50.88
3186.91,-74.71
3208.45,-83.78
3229.98,-75.26
3251.51,-48.30
3273.05,-43.84
3294.58,-51.58
3316.11,-79.32
3337.65,-90.03
3359.18,-90.65
3380.71,-56.66
3402.25,-51.35
3423.78,-57.99
3445.31,-93.15
3466.85,-103.47
3488.38,-101.44
3509.91,-60.72
3531.45,-54.47
3552.98,-60.18
3574.51,-100.03
3596.04,-97.53
3617.58,-86.51
3639.11,-56.74
3660.64,-49.39
3682.18,-54.16
3703.71,-83.23
3725.24,-93.00
3746.78,-84.63
3768.31,-59.55
3789.84,-51.19
3811.38,-55.02
3832.91,-79.09
3854.44,-91.75
3875.98,-90.34
3897.51,-68.62
3919.04,-59.08
3940.58,-61.97
3962.11,-82.84
3983.64,-96.28
4005.18,-98.31
4026.71,-79.40
4048.24,-68.69
4069.78,-70.80
4091.31,-88.39
4112.84,-90.96
4134.38,-81.51
4155.91,-62.91
4177.44,-50.95
4198.97,-52.13
4220.51,-68.30
4242.04,-82.13
4263.57,-76.43
4285.11,-59.32
4306.64,-45.95
4328.17,-46.27
4349.71,-60.72
4371.24,-76.74
4392.77,-77.76
4414.31,-62.21
4435.84,-47.20
4457.37,-46.66
4478.91,-59.63
4500.44,-77.05
4521.97,-81.35
4543.51,-67.37
4565.04,-50.56
4586.57,-49.16
4608.11,-60.72
4629.64,-79.16
4651.17,-80.26
4672.71,-66.43
4694.24,-47.44
4715.77,-45.17
4737.30,-55.49
4758.84,-75.96
4780.37,-80.26
4801.90,-67.76
4823.44,-46.11
4844.97,-42.91
4866.50,-52.05
4888.04,-74.87
4909.57,-81.51
4931.10,-70.26
4952.64,-44.94
4974.17,-40.80
4995.70,-48.92
5017.24,-75.10
5038.77,-84.56
5060.30,-76.66
5081.84,-45.33
5103.37,-40.33
5124.90,-47.36
5146.44,-79.32
5167.97,-90.73
5189.50,-97.84
5211.04,-49.39
5232.57,-43.45
5254.10,-49.47
5275.63,-103.00
5297.17,-96.59
5318.70,-85.49
5340.23,-53.22
5361.77,-46.27
5383.30,-51.35
5404.83,-82.92
5426.37,-88.62
5447.90,-78.46
5469.43,-51.97
5490.97,-43.92
5512.50,-48.14
5534.03,-73.62
5555.57,-84.87
5577.10,-78.38
5598.63,-55.49
5620.17,-46.34
5641.70,-49.55
5663.23,-71.35
5684.77,-84.17
5706.30,-81.35
5727.83,-61.04
5749.37,-50.72
5770.90,-53.06
5792.43,-72.05
5813.96,-83.46
5835.50,-76.04
5857.03,-57.13
5878.56,-45.56
5900.10,-47.05
5921.63,-63.93
5943.16,-78.38
5964.70,-76.20
5986.23,-58.93
6007.76,-45.95
6029.30,-46.58
6050.83,-61.66
6072.36,-77.68
6093.90,-83.62
6115.43,-69.16
6136.96,-54.78
6158.50,-54.47
6180.03,-68.07
6201.56,-85.42
6223.10,-87.14
6244.63,-71.58
6266.16,-55.33
6287.70,-54.24
6309.23,-66.27
6330.76,-84.01
6352.29,-82.92
6373.83,-68.62
6395.36,-50.41
6416.89,-48.38
6438.43,-59.16
6459.96,-79.09
6481.49,-84.56
6503.03,-72.05
6524.56,-51.42
6546.09,-48.53
6567.63,-58.07
6589.16,-80.10
6610.69,-88.00
6632.23,-77.52
6653.76,-53.69
6675.29,-49.86
6696.83,-58.30
6718.36,-83.23
6739.89,-92.14
6761.43,-83.38
6782.96,-54.63
6804.49,-49.86
6826.03,-57.28
6847.56,-86.74
6869.09,-97.37
6890.63,-94.17
6912.16,-54.08
6933.69,-48.38
6955.22,-54.78
6976.76,-95.34
6998.29,-101.28
7019.82,-90.34
7041.36,-54.39
7062.89,-47.75
7084.42,-53.14
7105.96,-88.54
7127.49,-98.31
7149.02,-91.28
7170.56,-63.69
7192.09,-56.03
7213.62,-60.49
7235.16,-87.45
7256.69,-90.03
7278.22,-79.48
7299.76,-55.41
7321.29,-46.66
7342.82,-50.25
7364.36,-72.99
7385.89,-80.73
7407.42,-71.51
7428.96,-50.02
7450.49,-40.17
7472.02,-42.83
7493.55,-62.75
7515.09,-75.49
7536.62,-70.33
7558.15,-50.95
7579.69,-39.86
7601.22,-41.58
7622.75,-59.24
7644.29,-73.69
7665.82,-74.55
7687.35,-57.21
7708.89,-44.78
7730.42,-45.64
7751.95,-61.35
7773.49,-76.90
7795.02,-81.12
7816.55,-65.49
7838.09,-51.58
7859.62,-51.58
7881.15,-65.57
7902.69,-80.88
7924.22,-76.59
7945.75,-61.04
7967.29,-45.48
7988.82,-44.63
8010.35,-57.13
8031.88,-74.87
8053.42,-77.13
8074.95,-62.99
8096.48,-45.48
8118.02,-43.77
8139.55,-55.02
8161.08,-74.40
8182.62,-82.21
8204.15,-70.96
8225.68,-51.27
8247.22,-48.69
8268.75,-58.61
8290.28,-80.02
8311.82,-90.03
8333.35,-83.85
8354.88,-61.19
8376.42,-57.75
8397.95,-66.51
8419.48,-90.26
8441.02,-98.00
8462.55,-87.84
8484.08,-60.96
8505.62,-56.58
8527.15,-64.32
8548.68,-91.67
8570.21,-99.33
8591.75,-89.48
8613.28,-54.86
8634.81,-49.55
8656.35,-56.27
8677.88,-91.36
8699.41,-101.75
8720.95,-93.54
8742.48,-51.27
8764.01,-44.94
8785.55,-50.64
8807.08,-92.37
8828.61,-95.03
8850.15,-84.40
8871.68,-54.39
8893.21,-47.13
8914.75,-51.89
8936.28,-81.27
8957.81,-93.78
8979.35,-97.61
9000.88,-73.46
9022.41,-65.10
9043.95,-68.93
9065.48,-91.82
9087.01,-88.85
9108.54,-78.31
9130.08,-55.96
9151.61,-46.42
9173.14,-49.39
9194.68,-70.26
9216.21,-81.82
9237.74,-74.71
9259.28,-54.63
9280.81,-43.92
9302.34,-45.95
9323.88,-64.32
9345.41,-77.91
9366.94,-74.55
9388.48,-56.27
9410.01,-44.31
9431.54,-45.48
9453.08,-61.82
9474.61,-76.35
9496.14,-73.54
9517.68,-56.66
9539.21,-43.22
9560.74,-43.53
9582.28,-58.07
9603.81,-73.77
9625.34,-72.52
9646.88,-56.82
9668.41,-41.89
9689.94,-41.34
9711.47,-54.32
9733.01,-71.51
9754.54,-73.54
9776.07,-59.08
9797.61,-42.28
9819.14,-40.87
9840.67,-52.52
9862.21,-71.27
9883.74,-77.05
9905.27,-64.32
9926.81,-45.41
9948.34,-43.06
9969.87,-53.46
9991.41,-74.09
10012.94,-82.68
10034.47,-73.46
10056.01,-51.97
10077.54,-48.77
10099.07,-57.99
10120.61,-80.81
10142.14,-89.79
10163.67,-80.88
10185.21,-55.72
10206.74,-51.66
10228.27,-59.79
10249.80,-85.81
10271.34,-94.32
10292.87,-85.34
10314.40,-54.16
10335.94,-49.16
10357.47,-56.19
10379.00,-88.00
10400.54,-99.17
10422.07,-105.34
10443.60,-56.27
10465.14,-50.25
10486.67,-56.35
10508.20,-110.34
10529.74,-103.94
10551.27,-92.68
10572.80,-60.25
10594.34,-53.30
10615.87,-58.38
10637.40,-90.18
10658.94,-94.95
10680.47,-84.56
10702.00,-58.07
10723.54,-50.02
10745.07,-54.24
10766.60,-79.79
10788.13,-87.76
10809.67,-78.54
10831.20,-55.41
10852.73,-46.27
10874.27,-49.55
10895.80,-71.35
10917.33,-82.68
10938.87,-75.34
10960.40,-54.63
10981.93,-44.39
11003.47,-46.74
11025.00,-65.88
11046.53,-78.93
11068.07,-74.32
11089.60,-55.41
11111.13,-43.92
11132.67,-45.41
11154.20,-62.36
11175.73,-76.74
11197.27,-74.95
11218.80,-57.60
11240.33,-44.70
11261.87,-45.33
11283.40,-60.41
11304.93,-76.12
11326.46,-76.98
11348.00,-61.11
11369.53,-46.74
11391.06,-46.50
11412.60,-60.02
11434.13,-76.82
11455.66,-80.10
11477.20,-65.57
11498.73,-49.47
11520.26,-48.38
11541.80,-60.41
11563.33,-78.62
11584.86,-82.68
11606.40,-69.24
11627.93,-51.11
11649.46,-49.08
11671.00,-59.86
11692.53,-79.71
11714.06,-85.10
11735.60,-72.68
11757.13,-52.05
11778.66,-49.16
11800.20,-58.77
11821.73,-80.73
11843.26,-88.93
11864.79,-78.77
11886.33,-55.02
11907.86,-51.19
11929.39,-59.71
11950.93,-84.63
11972.46,-94.48
11993.99,-88.62
12015.53,-60.10
12037.06,-55.33
12058.59,-62.75
12080.13,-92.14
12101.66,-102.53
12123.19,-99.25
12144.73,-59.71
12166.26,-54.08
12187.79,-60.49
12209.33,-100.73
12230.86,-105.73
12252.39,-94.25
12273.93,-57.99
12295.46,-51.35
12316.99,-56.82
12338.53,-92.37
12360.06,-96.51
12381.59,-86.20
12403.13,-58.07
12424.66,-50.41
12446.19,-54.86
12467.72,-82.21
12489.26,-91.59
12510.79,-82.99
12532.32,-58.93
12553.86,-50.25
12575.39,-53.77
12596.92,-76.74
12618.46,-88.39
12639.99,-81.90
12661.52,-60.49
12683.06,-50.64
12704.59,-53.30
12726.12,-73.30
12747.66,-86.28
12769.19,-82.29
12790.72,-62.91
12812.26,-51.89
12833.79,-53.61
12855.32,-71.27
12876.86,-85.10
12898.39,-81.51
12919.92,-63.69
12941.46,-51.27
12962.99,-52.21
12984.52,-67.91
13006.05,-82.53
13027.59,-79.01
13049.12,-62.36
13070.65,-48.53
13092.19,-48.53
13113.72,-62.60
13135.25,-78.77
13156.79,-78.46
13178.32,-63.07
13199.85,-47.59
13221.39,-46.74
13242.92,-59.32
13264.45,-77.05
13285.99,-81.04
13307.52,-67.13
13329.05,-49.70
13350.59,-48.06
13372.12,-59.24
13393.65,-78.62
13415.19,-86.67
13436.72,-75.80
13458.25,-56.19
13479.79,-53.61
13501.32,-63.61
13522.85,-84.95
13544.38,-94.79
13565.92,-87.53
13587.45,-64.94
13608.98,-61.50
13630.52,-70.33
13652.05,-93.93
13673.58,-99.95
13695.12,-88.46
13716.65,-61.66
13738.18,-57.28
13759.72,-65.10
13781.25,-92.53
13802.78,-102.14
13824.32,-95.26
13845.85,-61.04
13867.38,-55.72
13888.92,-62.44
13910.45,-97.14
13931.98,-107.14
13953.52,-98.54
13975.05,-55.64
13996.58,-49.39
14018.12,-55.10
14039.65,-96.51
14061.18,-93.93
14082.71,-82.92
14104.25,-52.75
14125.78,-45.48
14147.31,-50.25
14168.85,-79.71
14190.38,-87.68
14211.91,-78.38
14233.45,-53.14
14254.98,-44.78
14276.51,-48.69
14298.05,-72.91
14319.58,-84.32
14341.11,-77.91
14362.65,-55.72
14384.18,-46.27
14405.71,-49.24
14427.25,-70.18
14448.78,-82.76
14470.31,-78.07
14491.85,-58.14
14513.38,-47.44
14534.91,-49.55
14556.45,-67.91
14577.98,-81.35
14599.51,-77.45
14621.04,-59.08
14642.58,-47.13
14664.11,-48.38
14685.64,-64.71
14707.18,-79.48
14728.71,-78.15
14750.24,-61.35
14771.78,-47.99
14793.31,-48.30
14814.84,-62.91
14836.38,-78.93
14857.91,-80.96
14879.44,-65.57
14900.98,-50.72
14922.51,-50.17
14944.04,-63.22
14965.58,-80.57
14987.11,-84.87
15008.64,-70.88
15030.18,-54.16
15051.71,-52.75
15073.24,-64.40
15094.78,-83.07
15116.31,-87.06
15137.84,-73.69
15159.38,-54.78
15180.91,-52.52
15202.44,-62.91
15223.97,-83.23
15245.51,-86.74
15267.04,-74.01
15288.57,-52.44
15310.11,-49.31
15331.64,-58.53
15353.17,-81.20
15374.71,-87.14
15396.24,-75.57
15417.77,-50.41
15439.31,-46.34
15460.84,-54.47
15482.37,-80.49
15503.91,-89.79
15525.44,-81.67
15546.97,-50.64
15568.51,-45.64
15590.04,-52.75
15611.57,-84.40
15633.11,-95.73
15654.64,-102.22
15676.17,-55.10
15697.71,-49.16
15719.24,-55.17
15740.77,-109.02
15762.30,-115.42
15783.84,-110.66
15805.37,-80.10
15826.90,-73.15
15848.44,-78.23
15869.97,-104.09
15891.50,-96.67
15913.04,-85.57
15934.57,-58.93
15956.10,-50.88
15977.64,-55.10
15999.17,-80.73
16020.70,-88.62
16042.24,-79.32
16063.77,-56.11
16085.30,-47.05
16106.84,-50.33
16128.37,-72.21
16149.90,-83.85
16171.44,-77.13
16192.97,-56.35
16214.50,-46.11
16236.04,-48.53
16257.57,-67.68
16279.10,-80.88
16300.63,-76.90
16322.17,-58.07
16343.70,-46.58
16365.23,-48.06
16386.77,-65.02
16408.30,-79.63
16429.83,-79.01
16451.37,-61.82
16472.90,-48.92
16494.43,-49.63
16515.97,-64.79
16537.50,-80.57
16559.03,-84.71
16580.57,-69.47
16602.10,-55.17
16623.63,-54.94
16645.17,-68.46
16666.70,-85.65
16688.23,-95.42
16709.77,-92.68
16731.30,-76.43
16752.83,-75.34
16774.37,-87.29
16795.90,-98.08
16817.43,-90.11
16838.96,-75.41
16860.50,-57.28
16882.03,-55.33
16903.56,-66.11
16925.10,-85.89
16946.63,-90.57
16968.16,-77.84
16989.70,-57.28
17011.23,-54.39
17032.76,-64.00
17054.30,-85.96
17075.83,-94.72
17097.36,-85.42
17118.90,-61.74
17140.43,-57.99
17161.96,-66.51
17183.50,-90.96
17205.03,-95.97
17226.56,-84.48
17248.10,-55.88
17269.63,-51.19
17291.16,-58.61
17312.70,-87.84
17334.23,-98.00
17355.76,-92.76
17377.29,-53.53
17398.83,-47.91
17420.36,-54.32
17441.89,-94.17
17463.43,-102.69
17484.96,-91.67
17506.49,-55.10
17528.03,-48.45
17549.56,-53.92
17571.09,-89.87
17592.63,-96.04
17614.16,-86.20
17635.69,-58.07
17657.23,-50.41
17678.76,-54.94
17700.29,-82.37
17721.83,-92.37
17743.36,-84.17
17764.89,-60.10
17786.43,-51.42
17807.96,-55.02
17829.49,-78.07
17851.03,-89.95
17872.56,-84.17
17894.09,-62.83
17915.63,-52.99
17937.16,-55.64
17958.69,-75.73
17980.22,-88.85
18001.76,-85.49
18023.29,-66.11
18044.82,-55.10
18066.36,-56.89
18087.89,-74.55
18109.42,-89.09
18130.96,-90.18
18152.49,-72.76
18174.02,-60.41
18195.56,-61.35
18217.09,-77.13
18238.62,-93.00
18260.16,-101.44
18281.69,-86.51
18303.22,-72.52
18324.76,-72.68
18346.29,-86.59
18367.82,-99.33
18389.36,-91.67
18410.89,-75.80
18432.42,-60.25
18453.96,-59.47
18475.49,-72.05
18497.02,-89.56
18518.55,-90.89
18540.09,-76.51
18561.62,-59.16
18583.15,-57.44
18604.69,-68.69
18626.22,-87.84
18647.75,-91.82
18669.29,-78.70
18690.82,-59.08
18712.35,-56.50
18733.89,-66.51
18755.42,-87.45
18776.95,-91.43
18798.49,-79.01
18820.02,-56.42
18841.55,-52.99
18863.09,-61.82
18884.62,-85.34
18906.15,-91.51
18927.69,-80.26
18949.22,-53.61
18970.75,-49.24
18992.29,-57.05
19013.82,-84.40
19035.35,-93.78
19056.88,-85.96
19078.42,-51.97
19099.95,-46.66
19121.48,-53.38
19143.02,-88.00
19164.55,-99.33
19186.08,-95.26
19207.62,-51.58
19229.15,-45.33
19250.68,-51.11
19272.22,-93.78
19293.75,-94.01
19315.28,-83.15
19336.82,-52.91
19358.35,-45.64
19379.88,-50.41
19401.42,-80.02
19422.95,-89.64
19444.48,-81.20
19466.02,-55.96
19487.55,-47.59
19509.08,-51.50
19530.62,-75.88
19552.15,-87.60
19573.68,-81.90
19595.21,-59.71
19616.75,-50.33
19638.28,-53.30
19659.81,-74.24
19681.35,-86.67
19702.88,-81.67
19724.41,-61.58
19745.95,-50.95
19767.48,-53.06
19789.01,-71.51
19810.55,-84.48
19832.08,-79.32
19853.61,-60.88
19875.15,-49.00
19896.68,-50.25
19918.21,-66.58
19939.75,-80.96
19961.28,-77.84
19982.81,-60.80
20004.35,-47.52
20025.88,-47.83
20047.41,-62.44
20068.95,-78.31
20090.48,-78.38
20112.01,-62.75
20133.54,-47.83
20155.08,-47.36
20176.61,-60.41
20198.14,-77.60
20219.68,-80.49
20241.21,-66.19
20262.74,-49.55
20284.28,-48.14
20305.81,-59.86
20327.34,-78.62
20348.88,-85.03
20370.41,-72.60
20391.94,-53.77
20413.48,-51.50
20435.01,-61.97
20456.54,-82.60
20478.08,-92.68
20499.61,-92.76
20521.14,-72.13
20542.68,-69.01
20564.21,-78.23
20585.74,-100.11
20607.28,-95.42
20628.81,-82.37
20650.34,-57.21
20671.88,-53.14
20693.41,-61.27
20714.94,-87.14
20736.47,-95.03
20758.01,-84.79
20779.54,-53.92
20801.07,-48.92
20822.61,-56.03
20844.14,-87.45
20865.67,-98.62
20887.21,-103.39
20908.74,-54.08
20930.27,-48.14
20951.81,-54.24
20973.34,-105.58
20994.87,-100.89
21016.41,-89.64
21037.94,-56.74
21059.47,-49.78
21081.01,-54.94
21102.54,-87.37
21124.07,-97.53
21145.61,-89.79
21167.14,-63.30
21188.67,-55.33
21210.21,-59.55
21231.74,-85.42
21253.27,-97.06
21274.80,-90.26
21296.34,-67.05
21317.87,-57.99
21339.40,-61.27
21360.94,-83.23
21382.47,-93.54
21404.00,-85.10
21425.54,-64.24
21447.07,-54.00
21468.60,-56.42
21490.14,-75.57
21511.67,-88.62
21533.20,-83.31
21554.74,-64.32
21576.27,-52.91
21597.80,-54.39
21619.34,-71.35
21640.87,-85.73
21662.40,-83.07
21683.94,-65.65
21705.47,-52.83
21727.00,-53.53
21748.54,-68.54
21770.07,-84.32
21791.60,-85.57
21813.13,-69.63
21834.67,-55.33
21856.20,-55.10
21877.73,-68.38
21899.27,-85.57
21920.80,-92.37
21942.33,-79.32
21963.87,-63.38
21985.40,-62.21
22006.93,-74.16
22028.47,-92.61
22050.00,-100.50
