Frequency (Hz),Power (dB),44100.0000,2048,0,2.0000,0,L+R
0.00,-81.74
21.53,-80.88
43.07,-77.21
64.60,-69.94
86.13,-58.85
107.67,-26.89
129.20,-19.93
150.73,-24.93
172.27,-56.42
193.80,-68.62
215.33,-75.49
236.87,-60.18
258.40,-52.28
279.93,-56.35
301.46,-79.01
323.00,-76.98
344.53,-67.05
366.06,-44.08
387.60,-34.94
409.13,-38.22
430.66,-59.94
452.20,-73.54
473.73,-76.74
495.26,-56.58
516.80,-46.27
538.33,-48.61
559.86,-67.52
581.40,-80.10
602.93,-73.30
624.46,-54.47
646.00,-42.91
667.53,-44.31
689.06,-61.19
710.60,-76.35
732.13,-77.45
753.66,-60.10
775.20,-47.13
796.73,-47.67
818.26,-62.68
839.79,-78.54
861.33,-80.73
882.86,-65.10
904.39,-50.64
925.93,-50.41
947.46,-63.85
968.99,-81.04
990.53,-89.95
1012.06,-79.48
1033.59,-63.22
1055.13,-62.13
1076.66,-74.09
1098.19,-91.82
1119.73,-90.03
1141.26,-75.73
1162.79,-57.52
1184.33,-55.49
1205.86,-66.19
1227.39,-86.28
1248.93,-94.72
1270.46,-83.15
1291.99,-62.44
1313.53,-59.55
1335.06,-69.01
1356.59,-90.73
1378.13,-91.51
1399.66,-78.77
1421.19,-54.78
1442.72,-50.95
1464.26,-59.39
1485.79,-84.40
1507.32,-94.79
1528.86,-88.54
1550.39,-59.47
1571.92,-54.78
1593.46,-62.13
1614.99,-91.59
1636.52,-102.37
1658.06,-102.37
1679.59,-62.21
1701.12,-56.58
1722.66,-62.91
1744.19,-103.08
1765.72,-107.45
1787.26,-98.00
1808.79,-63.22
1830.32,-56.50
1851.86,-61.89
1873.39,-97.06
1894.92,-100.89
1916.46,-89.95
1937.99,-62.13
1959.52,-54.47
1981.05,-58.93
2002.59,-85.96
2024.12,-97.92
2045.65,-91.90
2067.19,-67.99
2088.72,-59.24
2110.25,-62.75
2131.79,-85.65
2153.32,-96.04
2174.85,-86.67
2196.39,-65.26
2217.92,-55.33
2239.45,-57.99
2260.99,-77.84
2282.52,-91.75
2304.05,-89.71
2325.59,-70.26
2347.12,-59.16
2368.65,-60.88
2390.19,-78.46
2411.72,-93.23
2433.25,-91.67
2454.79,-73.62
2476.32,-61.11
2497.85,-61.97
2519.38,-77.60
2540.92,-93.15
2562.45,-93.70
2583.98,-77.13
2605.52,-63.22
2627.05,-63.22
2648.58,-77.21
2670.12,-93.62
2691.65,-90.89
2713.18,-75.18
2734.72,-59.55
2756.25,-58.69
2777.78,-71.19
2799.32,-87.92
2820.85,-83.07
2842.38,-68.38
2863.92,-50.88
2885.45,-49.08
2906.98,-60.25
2928.52,-79.63
2950.05,-85.65
2971.58,-73.15
2993.12,-53.38
3014.65,-50.72
3036.18,-60.64
3057.71,-81.59
3079.25,-83.46
3100.78,-70.57
3122.31,-47.83
3143.85,-44.31
3165.38,-53.14
3186.91,-76.98
3208.45,-87.21
3229.98,-83.78
3251.51,-57.05
3273.05,-52.60
3294.58,-60.33
3316.11,-87.76
3337.65,-95.97
3359.18,-87.06
3380.71,-52.44
3402.25,-47.13
3423.78,-53.77
3445.31,-88.70
3466.85,-99.64
3488.38,-96.12
3509.91,-55.33
3531.45,-49.00
3552.98,-54.71
3574.51,-94.72
3596.04,-95.42
3617.58,-84.79
3639.11,-55.17
3660.64,-47.83
3682.18,-52.60
3703.71,-81.74
3725.24,-93.93
3746.78,-91.20
3768.31,-66.27
3789.84,-57.91
3811.38,-61.74
3832.91,-85.81
3854.44,-90.73
3875.98,-80.49
3897.51,-58.30
3919.04,-48.77
3940.58,-51.74
3962.11,-72.52
3983.64,-86.12
4005.18,-84.71
4026.71,-64.79
4048.24,-54.08
4069.78,-56.11
4091.31,-74.48
4112.84,-89.01
4134.38,-86.51
4155.91,-67.99
4177.44,-55.96
4198.97,-57.13
4220.51,-73.38
4242.04,-88.31
4263.57,-84.40
4285.11,-67.21
4306.64,-53.77
4328.17,-54.08
4349.71,-68.62
4371.24,-85.03
4392.77,-93.78
4414.31,-81.74
4435.84,-66.74
4457.37,-66.19
4478.91,-79.16
4500.44,-96.28
4521.97,-95.03
4543.51,-80.18
4565.04,-63.38
4586.57,-61.89
4608.11,-73.54
4629.64,-92.53
4651.17,-101.98
4672.71,-91.98
4694.24,-72.91
4715.77,-70.57
4737.30,-80.88
4758.84,-100.97
4780.37,-101.12
4801.90,-87.92
4823.44,-66.27
4844.97,-63.07
4866.50,-72.21
4888.04,-94.87
4909.57,-96.75
4931.10,-84.17
4952.64,-58.77
4974.17,-54.71
4995.70,-62.75
5017.24,-88.93
5038.77,-99.40
5060.30,-94.40
5081.84,-63.15
5103.37,-58.14
5124.90,-65.18
5146.44,-96.83
5167.97,-107.30
5189.50,-112.30
5211.04,-63.38
5232.57,-57.44
5254.10,-63.46
5275.63,-108.00
5297.17,-101.05
5318.70,-90.18
5340.23,-58.22
5361.77,-51.19
5383.30,-56.27
5404.83,-87.84
5426.37,-97.29
5447.90,-89.09
5469.43,-62.91
5490.97,-54.86
5512.50,-59.00
5534.03,-84.48
5555.57,-94.95
5577.10,-86.28
5598.63,-63.30
5620.17,-54.16
5641.70,-57.44
5663.23,-79.24
5684.77,-92.84
5706.30,-91.59
5727.83,-70.88
5749.37,-60.57
5770.90,-62.91
5792.43,-81.98
5813.96,-95.65
5835.50,-92.61
5857.03,-73.85
5878.56,-62.36
5900.10,-63.77
5921.63,-80.73
5943.16,-95.65
5964.70,-95.11
5986.23,-77.68
6007.76,-64.79
6029.30,-65.33
6050.83,-80.42
6072.36,-95.50
6093.90,-91.67
6115.43,-75.34
6136.96,-60.88
6158.50,-60.64
6180.03,-74.09
6201.56,-90.57
6223.10,-87.92
6244.63,-72.60
6266.16,-56.50
6287.70,-55.33
6309.23,-67.37
6330.76,-85.73
6352.29,-89.64
6373.83,-75.80
6395.36,-57.60
6416.89,-55.64
6438.43,-66.35
6459.96,-86.43
6481.49,-96.67
6503.03,-92.84
6524.56,-72.05
6546.09,-69.16
6567.63,-78.77
6589.16,-100.65
6610.69,-110.34
6632.23,-105.34
6653.76,-81.67
6675.29,-77.84
6696.83,-86.28
6718.36,-108.23
6739.89,-101.44
6761.43,-89.01
6782.96,-60.18
6804.49,-55.41
6826.03,-62.83
6847.56,-92.21
6869.09,-103.08
6890.63,-102.45
6912.16,-62.21
6933.69,-56.58
6955.22,-62.91
6976.76,-102.84
6998.29,-111.05
7019.82,-103.16
7041.36,-67.99
7062.89,-61.35
7084.42,-66.74
7105.96,-102.22
7127.49,-105.50
7149.02,-94.72
7170.56,-66.82
7192.09,-59.16
7213.62,-63.61
7235.16,-90.89
7256.69,-101.44
7278.22,-93.54
7299.76,-69.63
7321.29,-60.88
7342.82,-64.47
7364.36,-87.37
7385.89,-100.65
7407.42,-97.76
7428.96,-76.35
7450.49,-66.43
7472.02,-69.08
7493.55,-88.93
7515.09,-99.56
7536.62,-91.36
7558.15,-71.82
7579.69,-60.72
7601.22,-62.52
7622.75,-80.10
7644.29,-94.79
7665.82,-99.64
7687.35,-83.62
7708.89,-71.27
7730.42,-72.21
7751.95,-87.68
7773.49,-97.84
7795.02,-89.56
7816.55,-72.76
7838.09,-58.85
7859.62,-58.93
7881.15,-72.91
7902.69,-89.48
7924.22,-93.93
7945.75,-79.48
7967.29,-63.93
7988.82,-63.15
8010.35,-75.65
8031.88,-93.23
8053.42,-95.26
8074.95,-81.12
8096.48,-63.69
8118.02,-61.97
8139.55,-73.23
8161.08,-92.53
8182.62,-100.26
8204.15,-88.70
8225.68,-68.93
8247.22,-66.35
8268.75,-76.35
8290.28,-97.45
8311.82,-101.90
8333.35,-89.32
8354.88,-66.66
8376.42,-63.15
8397.95,-71.98
8419.48,-95.81
8441.02,-105.26
8462.55,-98.15
8484.08,-71.58
8505.62,-67.13
8527.15,-74.87
8548.68,-102.53
8570.21,-113.55
8591.75,-115.27
8613.28,-81.04
8634.81,-75.73
8656.35,-82.45
8677.88,-116.13
8699.41,-117.85
8720.95,-107.77
8742.48,-66.27
8764.01,-60.02
8785.55,-65.72
8807.08,-106.98
8828.61,-117.69
8850.15,-112.30
8871.68,-83.31
8893.21,-75.96
8914.75,-80.73
8936.28,-109.33
8957.81,-109.56
8979.35,-99.01
9000.88,-73.93
9022.41,-65.49
9043.95,-69.40
9065.48,-93.47
9087.01,-102.22
9108.54,-92.76
9130.08,-70.49
9151.61,-61.04
9173.14,-64.00
9194.68,-84.87
9216.21,-97.92
9237.74,-92.45
9259.28,-72.29
9280.81,-61.66
9302.34,-63.69
9323.88,-82.06
9345.41,-94.95
9366.94,-88.93
9388.48,-70.57
9410.01,-58.61
9431.54,-59.79
9453.08,-76.04
9474.61,-91.43
9496.14,-99.95
9517.68,-90.50
9539.21,-77.21
9560.74,-77.52
9582.28,-92.06
9603.81,-101.83
9625.34,-93.00
9646.88,-76.82
9668.41,-61.82
9689.94,-61.27
9711.47,-74.32
9733.01,-91.82
9754.54,-96.36
9776.07,-81.90
9797.61,-65.18
9819.14,-63.77
9840.67,-75.41
9862.21,-94.25
9883.74,-98.86
9905.27,-85.03
9926.81,-66.11
9948.34,-63.77
9969.87,-74.16
9991.41,-94.87
10012.94,-101.75
10034.47,-88.85
10056.01,-67.21
10077.54,-64.00
10099.07,-73.23
10120.61,-96.04
10142.14,-106.52
10163.67,-107.06
10185.21,-82.84
10206.74,-78.77
10228.27,-86.82
10249.80,-111.83
10271.34,-112.30
10292.87,-100.58
10314.40,-69.47
10335.94,-64.47
10357.47,-71.51
10379.00,-103.08
10400.54,-113.78
10422.07,-118.63
10443.60,-70.88
10465.14,-64.94
10486.67,-70.96
10508.20,-119.02
10529.74,-112.84
10551.27,-101.98
10572.80,-69.79
10594.34,-62.83
10615.87,-67.91
10637.40,-99.64
10658.94,-105.26
10680.47,-95.42
10702.00,-69.01
10723.54,-61.04
10745.07,-65.18
10766.60,-90.73
10788.13,-101.75
10809.67,-94.48
10831.20,-71.58
10852.73,-62.44
10874.27,-65.72
10895.80,-87.53
10917.33,-100.81
10938.87,-100.81
10960.40,-80.57
10981.93,-70.33
11003.47,-72.68
11025.00,-91.67
11046.53,-102.84
11068.07,-95.11
11089.60,-76.20
11111.13,-64.63
11132.67,-66.11
11154.20,-83.07
11175.73,-97.68
11197.27,-97.14
11218.80,-79.95
11240.33,-67.05
11261.87,-67.68
11283.40,-82.76
11304.93,-98.62
11326.46,-101.28
11348.00,-85.73
11369.53,-71.35
11391.06,-71.04
11412.60,-84.63
11434.13,-100.65
11455.66,-94.25
11477.20,-78.70
11498.73,-62.60
11520.26,-61.43
11541.80,-73.54
11563.33,-91.90
11584.86,-96.75
11606.40,-82.76
11627.93,-64.55
11649.46,-62.60
11671.00,-73.38
11692.53,-93.47
11714.06,-98.78
11735.60,-85.34
11757.13,-64.63
11778.66,-61.82
11800.20,-71.35
11821.73,-93.47
11843.26,-100.58
11864.79,-88.31
11886.33,-64.47
11907.86,-60.64
11929.39,-69.16
11950.93,-93.93
11972.46,-100.89
11993.99,-89.01
12015.53,-60.25
12037.06,-55.57
12058.59,-62.99
12080.13,-92.14
12101.66,-102.92
12123.19,-100.97
12144.73,-61.35
12166.26,-55.72
12187.79,-62.13
12209.33,-101.59
12230.86,-111.44
12252.39,-106.91
12273.93,-71.66
12295.46,-65.02
12316.99,-70.49
12338.53,-104.80
12360.06,-103.16
12381.59,-92.37
12403.13,-64.40
12424.66,-56.74
12446.19,-61.19
12467.72,-88.46
12489.26,-98.70
12510.79,-90.57
12532.32,-66.58
12553.86,-57.83
12575.39,-61.43
12596.92,-84.40
12618.46,-97.06
12639.99,-94.48
12661.52,-73.30
12683.06,-63.46
12704.59,-66.11
12726.12,-86.12
12747.66,-99.79
12769.19,-97.29
12790.72,-77.84
12812.26,-66.82
12833.79,-68.54
12855.32,-86.20
12876.86,-99.17
12898.39,-91.51
12919.92,-73.46
12941.46,-61.04
12962.99,-61.97
12984.52,-77.68
13006.05,-93.31
13027.59,-91.12
13049.12,-74.24
13070.65,-60.41
13092.19,-60.41
13113.72,-74.48
13135.25,-91.12
13156.79,-92.14
13178.32,-76.51
13199.85,-60.96
13221.39,-60.10
13242.92,-72.68
13264.45,-90.65
13285.99,-93.23
13307.52,-78.46
13329.05,-61.04
13350.59,-59.39
13372.12,-70.57
13393.65,-90.03
13415.19,-97.84
13436.72,-85.10
13458.25,-65.33
13479.79,-62.75
13501.32,-72.76
13522.85,-94.09
13544.38,-104.33
13565.92,-102.06
13587.45,-79.56
13608.98,-76.04
13630.52,-84.87
13652.05,-107.92
13673.58,-105.89
13695.12,-93.07
13716.65,-66.35
13738.18,-61.97
13759.72,-69.71
13781.25,-97.22
13802.78,-108.00
13824.32,-109.95
13845.85,-76.59
13867.38,-71.27
13888.92,-77.99
13910.45,-112.14
13931.98,-121.13
13953.52,-113.55
13975.05,-71.74
13996.58,-65.49
14018.12,-71.19
14039.65,-112.53
14061.18,-114.25
14082.71,-104.33
14104.25,-74.40
14125.78,-67.13
14147.31,-71.98
14168.85,-100.73
14190.38,-102.30
14211.91,-91.98
14233.45,-66.74
14254.98,-58.38
14276.51,-62.29
14298.05,-86.51
14319.58,-98.70
14341.11,-94.40
14362.65,-72.37
14384.18,-62.99
14405.71,-65.96
14427.25,-86.82
14448.78,-99.56
14470.31,-95.89
14491.85,-76.04
14513.38,-65.33
14534.91,-67.44
14556.45,-85.81
14577.98,-99.56
14599.51,-97.22
14621.04,-79.01
14642.58,-67.13
14664.11,-68.30
14685.64,-84.63
14707.18,-98.54
14728.71,-93.62
14750.24,-76.59
14771.78,-63.22
14793.31,-63.54
14814.84,-78.15
14836.38,-94.48
14857.91,-97.06
14879.44,-81.20
14900.98,-66.27
14922.51,-65.72
14944.04,-78.77
14965.58,-95.65
14987.11,-93.86
15008.64,-78.85
15030.18,-62.13
15051.71,-60.80
15073.24,-72.44
15094.78,-91.20
15116.31,-98.70
15137.84,-87.06
15159.38,-68.30
15180.91,-66.04
15202.44,-76.35
15223.97,-95.97
15245.51,-93.86
15267.04,-80.49
15288.57,-59.00
15310.11,-55.80
15331.64,-65.02
15353.17,-87.84
15374.71,-97.45
15396.24,-90.18
15417.77,-65.10
15439.31,-61.04
15460.84,-69.16
15482.37,-95.18
15503.91,-105.73
15525.44,-104.01
15546.97,-73.77
15568.51,-68.77
15590.04,-75.80
15611.57,-107.06
15633.11,-117.14
15654.64,-118.55
15676.17,-68.15
15697.71,-62.21
15719.24,-68.22
15740.77,-116.36
15762.30,-110.58
15783.84,-99.40
15805.37,-66.97
15826.90,-60.02
15848.44,-65.18
15869.97,-97.29
15891.50,-108.78
15913.04,-106.59
15934.57,-80.57
15956.10,-72.60
15977.64,-76.74
15999.17,-102.06
16020.70,-107.14
16042.24,-97.29
16063.77,-74.16
16085.30,-65.10
16106.84,-68.38
16128.37,-90.26
16149.90,-102.76
16171.44,-97.06
16192.97,-76.27
16214.50,-66.04
16236.04,-68.46
16257.57,-87.60
16279.10,-101.90
16300.63,-109.33
16322.17,-94.01
16343.70,-82.60
16365.23,-84.09
16386.77,-101.05
16408.30,-112.53
16429.83,-104.01
16451.37,-86.43
16472.90,-73.54
16494.43,-74.16
16515.97,-89.32
16537.50,-105.11
16559.03,-107.37
16580.57,-91.67
16602.10,-77.37
16623.63,-77.13
16645.17,-90.65
16666.70,-107.22
16688.23,-105.34
16709.77,-90.03
16731.30,-73.93
16752.83,-72.84
16774.37,-85.03
16795.90,-103.00
16817.43,-99.72
16838.96,-85.10
16860.50,-66.97
16882.03,-65.02
16903.56,-75.80
16925.10,-95.89
16946.63,-105.26
16968.16,-95.34
16989.70,-74.71
17011.23,-71.82
17032.76,-81.43
17054.30,-103.31
17075.83,-106.52
17097.36,-93.39
17118.90,-69.63
17140.43,-65.88
17161.96,-74.32
17183.50,-99.09
17205.03,-107.14
17226.56,-96.67
17248.10,-68.22
17269.63,-63.54
17291.16,-70.96
17312.70,-100.03
17334.23,-111.05
17355.76,-113.00
17377.29,-74.32
17398.83,-68.69
17420.36,-75.10
17441.89,-113.47
17463.43,-116.44
17484.96,-106.44
17506.49,-70.33
17528.03,-63.77
17549.56,-69.16
17571.09,-105.11
17592.63,-112.77
17614.16,-102.76
17635.69,-74.71
17657.23,-67.05
17678.76,-71.58
17700.29,-99.17
17721.83,-109.33
17743.36,-99.72
17764.89,-75.41
17786.43,-66.74
17807.96,-70.33
17829.49,-93.39
17851.03,-105.89
17872.56,-102.53
17894.09,-81.35
17915.63,-71.51
17937.16,-74.16
17958.69,-94.17
17980.22,-106.75
18001.76,-101.83
18023.29,-82.45
18044.82,-71.35
18066.36,-73.15
18087.89,-90.81
18109.42,-104.80
18130.96,-102.53
18152.49,-84.79
18174.02,-72.44
18195.56,-73.38
18217.09,-89.09
18238.62,-104.48
18260.16,-104.25
18281.69,-87.76
18303.22,-73.93
18324.76,-74.01
18346.29,-88.07
18367.82,-104.25
18389.36,-102.84
18410.89,-87.29
18432.42,-71.82
18453.96,-71.04
18475.49,-83.62
18497.02,-101.59
18518.55,-106.05
18540.09,-91.28
18561.62,-73.85
18583.15,-72.13
18604.69,-83.38
18626.22,-102.53
18647.75,-106.20
18669.29,-93.07
18690.82,-73.46
18712.35,-70.88
18733.89,-80.88
18755.42,-101.75
18776.95,-105.73
18798.49,-93.31
18820.02,-70.80
18841.55,-67.37
18863.09,-76.20
18884.62,-99.72
18906.15,-106.75
18927.69,-95.89
18949.22,-69.40
18970.75,-65.02
18992.29,-72.76
19013.82,-100.11
19035.35,-110.03
19056.88,-103.31
19078.42,-69.55
19099.95,-64.24
19121.48,-70.96
19143.02,-105.34
19164.55,-116.13
19186.08,-115.66
19207.62,-73.38
19229.15,-67.13
19250.68,-72.91
19272.22,-114.88
19293.75,-116.05
19315.28,-105.19
19336.82,-75.26
19358.35,-67.99
19379.88,-72.76
19401.42,-102.30
19422.95,-110.27
19444.48,-100.50
19466.02,-75.18
19487.55,-66.90
19509.08,-70.73
19530.62,-95.11
19552.15,-107.92
19573.68,-108.86
19595.21,-87.37
19616.75,-77.99
19638.28,-80.96
19659.81,-101.90
19681.35,-108.94
19702.88,-99.33
19724.41,-79.01
19745.95,-68.38
19767.48,-70.49
19789.01,-88.93
19810.55,-103.47
19832.08,-112.06
19853.61,-105.26
19875.15,-93.54
19896.68,-94.72
19918.21,-110.11
19939.75,-106.91
19961.28,-97.22
19982.81,-79.95
20004.35,-66.66
20025.88,-66.97
20047.41,-81.59
20068.95,-97.68
20090.48,-100.34
20112.01,-84.87
20133.54,-70.02
20155.08,-69.55
20176.61,-82.60
20198.14,-99.79
20219.68,-101.12
20241.21,-86.28
20262.74,-69.63
20284.28,-68.22
20305.81,-79.95
20327.34,-98.31
20348.88,-98.23
20370.41,-84.09
20391.94,-65.33
20413.48,-63.07
20435.01,-73.46
20456.54,-94.09
20478.08,-104.25
20499.61,-100.11
20521.14,-78.70
20542.68,-75.57
20564.21,-84.79
20585.74,-106.67
20607.28,-103.55
20628.81,-90.65
20650.34,-65.57
20671.88,-61.58
20693.41,-69.71
20714.94,-95.58
20736.47,-106.28
20758.01,-103.94
20779.54,-73.23
20801.07,-68.22
20822.61,-75.34
20844.14,-106.52
20865.67,-117.38
20887.21,-123.16
20908.74,-76.20
20930.27,-70.33
20951.81,-76.43
20973.34,-124.88
20994.87,-122.93
21016.41,-112.45
21037.94,-79.95
21059.47,-72.99
21081.01,-78.15
21102.54,-110.42
21124.07,-121.05
21145.61,-114.25
21167.14,-87.76
21188.67,-79.79
21210.21,-84.01
21231.74,-108.94
21253.27,-108.55
21274.80,-97.92
21296.34,-74.71
21317.87,-65.65
21339.40,-68.93
21360.94,-90.89
21382.47,-104.41
21404.00,-104.80
21425.54,-84.32
21447.07,-74.09
21468.60,-76.35
21490.14,-93.15
21511.67,-103.31
21533.20,-93.54
21554.74,-74.32
21576.27,-62.91
21597.80,-64.40
21619.34,-81.27
21640.87,-96.28
21662.40,-95.58
21683.94,-78.07
21705.47,-65.26
21727.00,-65.72
21748.54,-79.24
21770.07,-96.90
21791.60,-104.01
21813.13,-89.25
21834.67,-74.55
21856.20,-71.58
21877.73,-75.73
21899.27,-96.04
21920.80,-99.17
21942.33,-83.85
21963.87,-67.76
21985.40,-66.35
22006.93,-75.73
22028.47,-94.01
22050.00,-103.86
