Frequency (Hz),Power (dB),44100.0000,2048,0,2.0000,0,L+R
0.00,-111.75
21.53,-109.02
43.07,-103.70
64.60,-96.20
86.13,-84.87
107.67,-52.75
129.20,-45.72
150.73,-50.80
172.27,-82.53
193.80,-89.87
215.33,-79.71
236.87,-53.38
258.40,-45.33
279.93,-49.47
301.46,-75.02
323.00,-84.32
344.53,-74.87
366.06,-51.81
387.60,-42.67
409.13,-45.88
430.66,-67.68
452.20,-78.70
473.73,-70.18
495.26,-49.39
516.80,-39.08
538.33,-41.42
559.86,-60.49
581.40,-73.85
602.93,-68.77
624.46,-49.94
646.00,-38.30
667.53,-39.78
689.06,-56.66
710.60,-71.43
732.13,-67.29
753.66,-49.63
775.20,-36.65
796.73,-37.28
818.26,-52.36
839.79,-67.60
861.33,-62.68
882.86,-46.19
904.39,-31.65
925.93,-31.42
947.46,-44.86
968.99,-61.43
990.53,-61.04
1012.06,-46.03
1033.59,-29.78
1055.13,-28.61
1076.66,-40.64
1098.19,-58.93
1119.73,-63.77
1141.26,-50.41
1162.79,-32.20
1184.33,-30.17
1205.86,-40.95
1227.39,-61.11
1248.93,-69.87
1270.46,-59.08
1291.99,-38.37
1313.53,-35.40
1335.06,-44.94
1356.59,-67.21
1378.13,-77.21
1399.66,-70.26
1421.19,-46.19
1442.72,-42.36
1464.26,-50.80
1485.79,-75.80
1507.32,-85.89
1528.86,-80.10
1550.39,-51.03
1571.92,-46.34
1593.46,-53.69
1614.99,-83.31
1636.52,-93.93
1658.06,-88.39
1679.59,-47.28
1701.12,-41.58
1722.66,-47.99
1744.19,-88.93
1765.72,-94.64
1787.26,-84.01
1808.79,-48.38
1830.32,-41.73
1851.86,-47.13
1873.39,-82.53
1894.92,-92.92
1916.46,-84.40
1937.99,-56.50
1959.52,-48.84
1981.05,-53.30
2002.59,-80.49
2024.12,-92.92
2045.65,-91.82
2067.19,-68.22
2088.72,-59.47
2110.25,-62.99
2131.79,-85.96
2153.32,-99.25
2174.85,-95.58
2196.39,-74.09
2217.92,-64.16
2239.45,-66.82
2260.99,-86.59
2282.52,-97.53
2304.05,-89.71
2325.59,-70.26
2347.12,-59.16
2368.65,-60.88
2390.19,-78.46
2411.72,-92.76
2433.25,-91.59
2454.79,-73.93
2476.32,-61.43
2497.85,-62.36
2519.38,-77.84
2540.92,-89.48
2562.45,-81.59
2583.98,-64.79
2605.52,-50.88
2627.05,-50.88
2648.58,-64.86
2670.12,-81.12
2691.65,-81.59
2713.18,-66.35
2734.72,-50.72
2756.25,-49.86
2777.78,-62.36
2799.32,-80.57
2820.85,-90.50
2842.38,-88.23
2863.92,-70.57
2885.45,-68.93
2906.98,-80.02
2928.52,-98.94
2950.05,-100.73
2971.58,-87.37
2993.12,-67.52
3014.65,-64.94
3036.18,-74.87
3057.71,-96.28
3079.25,-99.40
3100.78,-86.20
3122.31,-63.30
3143.85,-59.79
3165.38,-68.54
3186.91,-92.45
3208.45,-100.73
3229.98,-90.73
3251.51,-63.77
3273.05,-59.32
3294.58,-67.05
3316.11,-94.87
3337.65,-105.66
3359.18,-104.25
3380.71,-69.71
3402.25,-64.32
3423.78,-71.04
3445.31,-106.20
3466.85,-114.88
3488.38,-106.20
3509.91,-64.55
3531.45,-58.22
3552.98,-63.93
3574.51,-104.95
3596.04,-106.20
3617.58,-95.42
3639.11,-65.57
3660.64,-58.22
3682.18,-62.99
3703.71,-92.14
3725.24,-103.16
3746.78,-96.67
3768.31,-71.74
3789.84,-63.38
3811.38,-67.21
3832.91,-91.36
3854.44,-103.62
3875.98,-98.78
3897.51,-76.74
3919.04,-67.21
3940.58,-70.18
3962.11,-91.04
3983.64,-103.16
4005.18,-94.09
4026.71,-73.77
4048.24,-63.07
4069.78,-65.18
4091.31,-83.38
4112.84,-96.36
4134.38,-90.11
4155.91,-71.66
4177.44,-59.63
4198.97,-60.80
4220.51,-77.05
4242.04,-91.98
4263.57,-91.82
4285.11,-75.18
4306.64,-61.74
4328.17,-62.05
4349.71,-76.59
4371.24,-93.00
4392.77,-96.43
4414.31,-80.96
4435.84,-65.96
4457.37,-65.41
4478.91,-78.38
4500.44,-95.58
4521.97,-97.76
4543.51,-83.31
4565.04,-66.51
4586.57,-65.02
4608.11,-76.66
4629.64,-95.42
4651.17,-99.64
4672.71,-86.20
4694.24,-67.29
4715.77,-64.94
4737.30,-75.26
4758.84,-95.89
4780.37,-102.92
4801.90,-91.43
4823.44,-69.79
4844.97,-66.58
4866.50,-75.73
4888.04,-98.39
4909.57,-100.58
4931.10,-88.07
4952.64,-62.68
4974.17,-58.53
4995.70,-66.58
5017.24,-92.84
5038.77,-102.61
5060.30,-95.73
5081.84,-64.47
5103.37,-59.39
5124.90,-66.43
5146.44,-98.47
5167.97,-109.80
5189.50,-117.14
5211.04,-79.09
5232.57,-73.15
5254.10,-79.16
5275.63,-126.13
5297.17,-119.57
5318.70,-108.39
5340.23,-76.20
5361.77,-69.16
5383.30,-74.24
5404.83,-105.81
5426.37,-103.70
5447.90,-92.45
5469.43,-65.96
5490.97,-57.91
5512.50,-62.05
5534.03,-87.53
5555.57,-96.20
5577.10,-87.14
5598.63,-64.08
5620.17,-54.94
5641.70,-58.14
5663.23,-80.02
5684.77,-92.68
5706.30,-89.01
5727.83,-68.54
5749.37,-58.22
5770.90,-60.57
5792.43,-79.71
5813.96,-94.09
5835.50,-97.76
5857.03,-79.48
5878.56,-67.99
5900.10,-69.40
5921.63,-86.43
5943.16,-101.44
5964.70,-96.98
5986.23,-79.16
6007.76,-66.19
6029.30,-66.82
6050.83,-81.90
6072.36,-97.37
6093.90,-95.97
6115.43,-79.79
6136.96,-65.33
6158.50,-65.10
6180.03,-78.54
6201.56,-95.50
6223.10,-96.83
6244.63,-81.74
6266.16,-65.57
6287.70,-64.47
6309.23,-76.51
6330.76,-94.56
6352.29,-90.73
6373.83,-75.96
6395.36,-57.75
6416.89,-55.72
6438.43,-66.51
6459.96,-86.35
6481.49,-91.43
6503.03,-78.85
6524.56,-58.14
6546.09,-55.25
6567.63,-64.86
6589.16,-87.06
6610.69,-97.68
6632.23,-102.37
6653.76,-79.56
6675.29,-75.80
6696.83,-84.24
6718.36,-108.63
6739.89,-110.03
6761.43,-97.45
6782.96,-68.46
6804.49,-63.69
6826.03,-71.12
6847.56,-100.42
6869.09,-109.33
6890.63,-101.12
6912.16,-60.80
6933.69,-55.17
6955.22,-61.50
6976.76,-101.98
6998.29,-101.83
7019.82,-90.34
7041.36,-54.39
7062.89,-47.75
7084.42,-53.14
7105.96,-88.54
7127.49,-94.25
7149.02,-84.17
7170.56,-56.19
7192.09,-48.45
7213.62,-52.91
7235.16,-80.26
7256.69,-92.92
7278.22,-97.84
7299.76,-75.88
7321.29,-67.21
7342.82,-70.73
7364.36,-92.92
7385.89,-87.92
7407.42,-77.37
7428.96,-55.80
7450.49,-45.88
7472.02,-48.53
7493.55,-68.46
7515.09,-81.20
7536.62,-75.96
7558.15,-56.58
7579.69,-45.48
7601.22,-47.20
7622.75,-64.86
7644.29,-79.71
7665.82,-83.23
7687.35,-65.80
7708.89,-53.38
7730.42,-54.24
7751.95,-69.94
7773.49,-85.18
7795.02,-85.81
7816.55,-69.63
7838.09,-55.80
7859.62,-55.80
7881.15,-69.79
7902.69,-85.89
7924.22,-84.71
7945.75,-69.24
7967.29,-53.69
7988.82,-52.83
8010.35,-65.33
8031.88,-83.15
8053.42,-86.98
8074.95,-73.15
8096.48,-55.64
8118.02,-53.92
8139.55,-65.18
8161.08,-84.56
8182.62,-92.45
8204.15,-81.35
8225.68,-61.58
8247.22,-59.00
8268.75,-69.01
8290.28,-89.40
8311.82,-87.53
8333.35,-74.32
8354.88,-51.50
8376.42,-48.06
8397.95,-56.89
8419.48,-80.65
8441.02,-88.39
8462.55,-77.68
8484.08,-50.72
8505.62,-46.34
8527.15,-54.08
8548.68,-81.74
8570.21,-92.53
8591.75,-90.89
8613.28,-56.58
8634.81,-51.27
8656.35,-57.99
8677.88,-93.15
8699.41,-104.64
8720.95,-110.97
8742.48,-73.46
8764.01,-67.13
8785.55,-72.84
8807.08,-114.72
8828.61,-119.72
8850.15,-109.17
8871.68,-79.24
8893.21,-71.90
8914.75,-76.74
8936.28,-105.73
8957.81,-108.78
8979.35,-98.31
9000.88,-73.07
9022.41,-64.71
9043.95,-68.62
9065.48,-92.76
9087.01,-104.01
9108.54,-96.98
9130.08,-74.79
9151.61,-65.33
9173.14,-68.30
9194.68,-89.09
9216.21,-99.09
9237.74,-90.81
9259.28,-70.65
9280.81,-59.94
9302.34,-62.05
9323.88,-80.34
9345.41,-93.93
9366.94,-90.11
9388.48,-71.82
9410.01,-59.86
9431.54,-61.04
9453.08,-77.37
9474.61,-92.53
9496.14,-95.50
9517.68,-79.32
9539.21,-65.96
9560.74,-66.27
9582.28,-80.81
9603.81,-96.67
9625.34,-96.36
9646.88,-80.65
9668.41,-65.72
9689.94,-65.18
9711.47,-78.15
9733.01,-94.95
9754.54,-93.54
9776.07,-78.62
9797.61,-61.82
9819.14,-60.41
9840.67,-72.05
9862.21,-90.73
9883.74,-95.18
9905.27,-81.82
9926.81,-62.99
9948.34,-60.64
9969.87,-71.04
9991.41,-91.90
10012.94,-91.67
10034.47,-77.84
10056.01,-56.11
10077.54,-52.99
10099.07,-62.13
10120.61,-84.95
10142.14,-92.37
10163.67,-81.51
10185.21,-56.27
10206.74,-52.21
10228.27,-60.25
10249.80,-86.51
10271.34,-97.53
10292.87,-95.26
10314.40,-63.93
10335.94,-58.93
10357.47,-65.96
10379.00,-97.68
10400.54,-108.70
10422.07,-114.72
10443.60,-62.60
10465.14,-56.58
10486.67,-62.68
10508.20,-115.11
10529.74,-108.55
10551.27,-97.29
10572.80,-64.79
10594.34,-57.83
10615.87,-62.91
10637.40,-95.11
10658.94,-106.20
10680.47,-96.83
10702.00,-70.10
10723.54,-62.13
10745.07,-66.27
10766.60,-91.36
10788.13,-92.14
10809.67,-81.67
10831.20,-58.46
10852.73,-49.39
10874.27,-52.67
10895.80,-74.48
10917.33,-86.67
10938.87,-80.73
10960.40,-60.10
10981.93,-49.86
11003.47,-52.21
11025.00,-71.35
11046.53,-85.49
11068.07,-88.39
11089.60,-70.41
11111.13,-58.93
11132.67,-60.41
11154.20,-77.37
11175.73,-91.12
11197.27,-85.81
11218.80,-68.22
11240.33,-55.33
11261.87,-55.96
11283.40,-71.12
11304.93,-86.82
11326.46,-87.68
11348.00,-71.66
11369.53,-57.28
11391.06,-57.05
11412.60,-70.57
11434.13,-87.84
11455.66,-90.26
11477.20,-74.79
11498.73,-58.61
11520.26,-57.52
11541.80,-69.55
11563.33,-87.53
11584.86,-88.31
11606.40,-74.24
11627.93,-56.03
11649.46,-54.08
11671.00,-64.86
11692.53,-84.87
11714.06,-90.50
11735.60,-77.68
11757.13,-57.05
11778.66,-54.16
11800.20,-63.77
11821.73,-85.96
11843.26,-93.15
11864.79,-80.65
11886.33,-56.74
11907.86,-52.91
11929.39,-61.43
11950.93,-86.20
11972.46,-94.64
11993.99,-85.03
12015.53,-56.27
12037.06,-51.58
12058.59,-59.00
12080.13,-88.23
12101.66,-96.83
12123.19,-87.76
12144.73,-47.83
12166.26,-42.20
12187.79,-48.61
12209.33,-88.85
12230.86,-94.17
12252.39,-82.92
12273.93,-46.66
12295.46,-40.01
12316.99,-45.48
12338.53,-81.27
12360.06,-89.17
12381.59,-79.48
12403.13,-51.42
12424.66,-43.77
12446.19,-48.22
12467.72,-75.73
12489.26,-88.62
12510.79,-95.73
12532.32,-73.93
12553.86,-65.18
12575.39,-68.77
12596.92,-91.51
12618.46,-95.81
12639.99,-85.81
12661.52,-64.24
12683.06,-54.39
12704.59,-57.05
12726.12,-77.05
12747.66,-89.87
12769.19,-85.26
12790.72,-65.88
12812.26,-54.78
12833.79,-56.58
12855.32,-74.24
12876.86,-88.85
12898.39,-91.43
12919.92,-74.32
12941.46,-61.97
12962.99,-62.83
12984.52,-78.54
13006.05,-89.95
13027.59,-81.67
13049.12,-64.79
13070.65,-50.88
13092.19,-50.95
13113.72,-64.94
13135.25,-81.20
13156.79,-79.56
13178.32,-63.93
13199.85,-48.38
13221.39,-47.59
13242.92,-60.18
13264.45,-77.99
13285.99,-82.92
13307.52,-69.08
13329.05,-51.66
13350.59,-50.02
13372.12,-61.19
13393.65,-80.65
13415.19,-88.70
13436.72,-78.15
13458.25,-58.53
13479.79,-55.96
13501.32,-65.96
13522.85,-87.14
13544.38,-93.23
13565.92,-81.43
13587.45,-58.77
13608.98,-55.33
13630.52,-64.16
13652.05,-88.00
13673.58,-98.31
13695.12,-94.48
13716.65,-67.99
13738.18,-63.61
13759.72,-71.35
13781.25,-99.01
13802.78,-109.95
13824.32,-110.58
13845.85,-76.82
13867.38,-71.51
13888.92,-78.23
13910.45,-113.00
13931.98,-117.22
13953.52,-105.89
13975.05,-62.91
13996.58,-56.58
14018.12,-62.36
14039.65,-104.33
14061.18,-104.01
14082.71,-93.15
14104.25,-63.07
14125.78,-55.80
14147.31,-60.57
14168.85,-90.03
14190.38,-99.48
14211.91,-90.96
14233.45,-65.72
14254.98,-57.36
14276.51,-61.27
14298.05,-85.57
14319.58,-97.06
14341.11,-90.50
14362.65,-68.30
14384.18,-58.85
14405.71,-61.82
14427.25,-82.76
14448.78,-96.28
14470.31,-96.43
14491.85,-76.82
14513.38,-66.19
14534.91,-68.22
14556.45,-86.59
14577.98,-93.15
14599.51,-83.54
14621.04,-64.86
14642.58,-52.91
14664.11,-54.16
14685.64,-70.49
14707.18,-85.18
14728.71,-83.62
14750.24,-66.66
14771.78,-53.38
14793.31,-53.69
14814.84,-68.30
14836.38,-84.79
14857.91,-93.93
14879.44,-86.20
14900.98,-71.35
14922.51,-70.80
14944.04,-83.85
14965.58,-101.20
14987.11,-106.59
15008.64,-92.37
15030.18,-75.65
15051.71,-74.24
15073.24,-85.89
15094.78,-104.64
15116.31,-109.41
15137.84,-96.28
15159.38,-77.37
15180.91,-75.10
15202.44,-85.49
15223.97,-105.58
15245.51,-106.28
15267.04,-93.15
15288.57,-71.58
15310.11,-68.38
15331.64,-77.60
15353.17,-100.34
15374.71,-108.16
15396.24,-97.53
15417.77,-72.44
15439.31,-68.38
15460.84,-76.51
15482.37,-102.76
15503.91,-112.84
15525.44,-102.53
15546.97,-71.27
15568.51,-66.27
15590.04,-73.30
15611.57,-104.95
15633.11,-116.05
15654.64,-121.68
15676.17,-70.65
15697.71,-64.63
15719.24,-70.73
15740.77,-121.05
15762.30,-113.94
15783.84,-102.69
15805.37,-70.02
15826.90,-63.07
15848.44,-68.15
15869.97,-100.34
15891.50,-108.08
15913.04,-98.54
15934.57,-71.98
15956.10,-64.00
15977.64,-68.15
15999.17,-94.09
16020.70,-106.59
16042.24,-99.17
16063.77,-75.73
16085.30,-66.66
16106.84,-69.94
16128.37,-91.82
16149.90,-103.70
16171.44,-97.14
16192.97,-76.43
16214.50,-66.19
16236.04,-68.62
16257.57,-87.84
16279.10,-101.98
16300.63,-104.25
16322.17,-85.96
16343.70,-74.48
16365.23,-75.96
16386.77,-93.00
16408.30,-108.31
16429.83,-109.56
16451.37,-91.82
16472.90,-78.93
16494.43,-79.56
16515.97,-94.72
16537.50,-110.03
16559.03,-108.00
16580.57,-91.90
16602.10,-77.52
16623.63,-77.29
16645.17,-90.89
16666.70,-107.84
16688.23,-109.64
16709.77,-94.32
16731.30,-78.15
16752.83,-77.05
16774.37,-89.01
16795.90,-101.05
16817.43,-93.15
16838.96,-78.46
16860.50,-60.33
16882.03,-58.38
16903.56,-69.16
16925.10,-88.93
16946.63,-94.17
16968.16,-81.59
16989.70,-61.04
17011.23,-58.14
17032.76,-67.83
17054.30,-89.87
17075.83,-100.34
17097.36,-105.03
17118.90,-84.01
17140.43,-80.18
17161.96,-88.70
17183.50,-112.92
17205.03,-114.02
17226.56,-101.67
17248.10,-72.91
17269.63,-68.30
17291.16,-75.73
17312.70,-104.87
17334.23,-115.35
17355.76,-112.92
17377.29,-74.01
17398.83,-68.38
17420.36,-74.79
17441.89,-114.25
17463.43,-117.92
17484.96,-107.30
17506.49,-70.73
17528.03,-64.16
17549.56,-69.55
17571.09,-105.34
17592.63,-107.77
17614.16,-97.06
17635.69,-68.85
17657.23,-61.19
17678.76,-65.72
17700.29,-93.23
17721.83,-103.94
17743.36,-96.51
17764.89,-72.37
17786.43,-63.69
17807.96,-67.29
17829.49,-90.34
17851.03,-102.53
17872.56,-97.53
17894.09,-76.12
17915.63,-66.27
17937.16,-69.01
17958.69,-89.01
17980.22,-101.51
18001.76,-95.97
18023.29,-76.43
18044.82,-65.41
18066.36,-67.21
18087.89,-84.79
18109.42,-95.42
18130.96,-87.21
18152.49,-69.16
18174.02,-56.74
18195.56,-57.68
18217.09,-73.38
18238.62,-88.54
18260.16,-87.68
18281.69,-71.19
18303.22,-57.36
18324.76,-57.44
18346.29,-71.51
18367.82,-88.23
18389.36,-96.12
18410.89,-84.79
18432.42,-69.40
18453.96,-68.62
18475.49,-81.20
18497.02,-98.47
18518.55,-97.61
18540.09,-82.99
18561.62,-65.57
18583.15,-63.93
18604.69,-75.18
18626.22,-94.40
18647.75,-99.87
18669.29,-87.06
18690.82,-67.44
18712.35,-64.86
18733.89,-74.95
18755.42,-96.36
18776.95,-105.42
18798.49,-93.31
18820.02,-70.65
18841.55,-67.21
18863.09,-76.04
18884.62,-99.56
18906.15,-104.64
18927.69,-92.84
18949.22,-66.11
18970.75,-61.74
18992.29,-69.55
19013.82,-96.98
19035.35,-107.30
19056.88,-102.14
19078.42,-68.15
19099.95,-62.83
19121.48,-69.55
19143.02,-104.25
19164.55,-115.74
19186.08,-123.39
19207.62,-94.48
19229.15,-88.15
19250.68,-93.93
19272.22,-131.91
19293.75,-126.21
19315.28,-115.03
19336.82,-84.79
19358.35,-77.52
19379.88,-82.37
19401.42,-111.83
19422.95,-114.88
19444.48,-104.25
19466.02,-78.77
19487.55,-70.49
19509.08,-74.40
19530.62,-98.70
19552.15,-109.80
19573.68,-102.53
19595.21,-80.26
19616.75,-70.88
19638.28,-73.85
19659.81,-94.95
19681.35,-108.08
19702.88,-100.73
19724.41,-80.34
19745.95,-69.71
19767.48,-71.82
19789.01,-90.26
19810.55,-103.78
19832.08,-99.79
19853.61,-81.43
19875.15,-69.55
19896.68,-70.73
19918.21,-87.21
19939.75,-99.56
19961.28,-90.65
19982.81,-73.23
20004.35,-59.86
20025.88,-60.25
20047.41,-74.87
20068.95,-90.65
20090.48,-89.09
20112.01,-73.15
20133.54,-58.22
20155.08,-57.75
20176.61,-70.80
20198.14,-88.23
20219.68,-93.31
20241.21,-79.32
20262.74,-62.68
20284.28,-61.27
20305.81,-72.99
20327.34,-91.90
20348.88,-100.89
20370.41,-92.84
20391.94,-74.16
20413.48,-71.90
20435.01,-82.37
20456.54,-102.76
20478.08,-108.47
20499.61,-96.36
20521.14,-74.95
20542.68,-71.74
20564.21,-81.04
20585.74,-103.78
20607.28,-111.52
20628.81,-100.97
20650.34,-75.88
20671.88,-71.82
20693.41,-79.95
20714.94,-105.89
20736.47,-114.88
20758.01,-106.44
20779.54,-75.65
20801.07,-70.65
20822.61,-77.76
20844.14,-109.25
20865.67,-120.19
20887.21,-121.99
20908.74,-70.33
20930.27,-64.40
20951.81,-70.57
20973.34,-120.27
20994.87,-115.58
21016.41,-104.33
21037.94,-71.51
21059.47,-64.55
21081.01,-69.71
21102.54,-102.06
21124.07,-113.00
21145.61,-105.34
21167.14,-78.70
21188.67,-70.73
21210.21,-74.95
21231.74,-100.50
21253.27,-112.38
21274.80,-106.20
21296.34,-83.15
21317.87,-74.09
21339.40,-77.37
21360.94,-99.09
21382.47,-100.34
21404.00,-89.95
21425.54,-68.93
21447.07,-58.77
21468.60,-61.11
21490.14,-80.34
21511.67,-93.54
21533.20,-89.25
21554.74,-70.33
21576.27,-58.93
21597.80,-60.41
21619.34,-77.45
21640.87,-92.61
21662.40,-99.79
21683.94,-85.42
21705.47,-72.60
21727.00,-72.99
21748.54,-84.56
21770.07,-103.08
21791.60,-101.44
21813.13,-85.26
21834.67,-70.88
21856.20,-70.57
21877.73,-82.84
21899.27,-100.42
21920.80,-103.31
21942.33,-88.54
21963.87,-72.44
21985.40,-71.04
22006.93,-79.56
22028.47,-97.76
22050.00,-108.78
