Frequency (Hz),Power (dB),44100.0000,2048,0,2.0000,0,L+R
0.00,-53.30
21.53,-50.02
43.07,-28.29
64.60,-22.74
86.13,-28.76
107.67,-43.92
129.20,-38.92
150.73,-45.09
172.27,-53.30
193.80,-47.44
215.33,-53.06
236.87,-66.51
258.40,-60.96
279.93,-65.41
301.46,-61.97
323.00,-56.19
344.53,-61.35
366.06,-66.43
387.60,-59.79
409.13,-63.07
430.66,-63.46
452.20,-59.00
473.73,-63.46
495.26,-66.90
516.80,-61.27
538.33,-65.96
559.86,-67.68
581.40,-60.72
602.93,-63.54
624.46,-67.21
646.00,-61.58
667.53,-65.80
689.06,-72.68
710.60,-66.19
732.13,-69.08
753.66,-71.51
775.20,-64.71
796.73,-67.99
818.26,-76.66
839.79,-69.87
861.33,-71.58
882.86,-74.24
904.39,-66.27
925.93,-68.77
947.46,-79.63
968.99,-75.02
990.53,-77.52
1012.06,-83.38
1033.59,-76.12
1055.13,-77.45
1076.66,-75.88
1098.19,-67.21
1119.73,-68.22
1141.26,-76.20
1162.79,-68.69
1184.33,-70.33
1205.86,-80.34
1227.39,-69.87
1248.93,-70.33
1270.46,-77.13
1291.99,-68.22
1313.53,-68.62
1335.06,-77.13
1356.59,-71.74
1378.13,-71.27
1399.66,-79.56
1421.19,-78.07
1442.72,-81.27
1464.26,-88.93
1485.79,-77.76
1507.32,-76.04
1528.86,-80.65
1550.39,-73.15
1571.92,-72.60
1593.46,-80.10
1614.99,-71.98
1636.52,-70.57
1658.06,-76.82
1679.59,-71.12
1701.12,-70.10
1722.66,-76.74
1744.19,-74.40
1765.72,-73.30
1787.26,-77.99
1808.79,-72.68
1830.32,-69.87
1851.86,-73.54
1873.39,-68.69
1894.92,-68.22
1916.46,-76.51
1937.99,-77.05
1959.52,-71.82
1981.05,-73.07
2002.59,-66.90
2024.12,-65.57
2045.65,-72.37
2067.19,-73.62
2088.72,-74.40
2110.25,-75.80
2131.79,-67.83
2153.32,-65.26
2174.85,-70.10
2196.39,-67.44
2217.92,-63.22
2239.45,-67.05
2260.99,-70.26
2282.52,-68.38
2304.05,-72.44
2325.59,-65.49
2347.12,-60.72
2368.65,-64.08
2390.19,-67.44
2411.72,-65.96
2433.25,-72.60
2454.79,-72.60
2476.32,-66.27
2497.85,-67.60
2519.38,-70.65
2540.92,-70.26
2562.45,-74.55
2583.98,-72.68
2605.52,-68.85
2627.05,-70.96
2648.58,-74.87
2670.12,-75.18
2691.65,-78.15
2713.18,-79.01
2734.72,-74.79
2756.25,-75.80
2777.78,-75.80
2799.32,-74.71
2820.85,-75.80
2842.38,-78.46
2863.92,-76.35
2885.45,-76.82
2906.98,-74.24
2928.52,-71.27
2950.05,-74.71
2971.58,-80.34
2993.12,-72.76
3014.65,-72.05
3036.18,-73.62
3057.71,-71.04
3079.25,-74.48
3100.78,-81.04
3122.31,-78.31
3143.85,-77.60
3165.38,-78.77
3186.91,-75.96
3208.45,-77.45
3229.98,-83.23
3251.51,-77.45
3273.05,-75.18
3294.58,-77.76
3316.11,-75.73
3337.65,-76.66
3359.18,-83.78
3380.71,-82.13
3402.25,-81.04
3423.78,-80.34
3445.31,-73.30
3466.85,-72.29
3488.38,-77.60
3509.91,-82.68
3531.45,-81.67
3552.98,-81.04
3574.51,-75.80
3596.04,-72.68
3617.58,-74.87
3639.11,-72.91
3660.64,-72.91
3682.18,-78.54
3703.71,-76.20
3725.24,-73.07
3746.78,-75.73
3768.31,-75.49
3789.84,-72.84
3811.38,-75.57
3832.91,-73.38
3854.44,-70.80
3875.98,-74.79
3897.51,-76.82
3919.04,-75.65
3940.58,-78.07
3962.11,-75.88
3983.64,-72.91
4005.18,-77.21
4026.71,-76.66
4048.24,-72.76
4069.78,-73.85
4091.31,-73.23
4112.84,-71.58
4134.38,-76.35
4155.91,-77.29
4177.44,-73.77
4198.97,-73.93
4220.51,-74.32
4242.04,-72.99
4263.57,-77.13
4285.11,-80.81
4306.64,-77.13
4328.17,-76.35
4349.71,-75.96
4371.24,-74.24
4392.77,-76.20
4414.31,-77.52
4435.84,-77.05
4457.37,-80.88
4478.91,-84.01
4500.44,-82.99
4521.97,-82.53
4543.51,-80.34
4565.04,-75.80
4586.57,-75.80
4608.11,-77.84
4629.64,-77.60
4651.17,-80.18
4672.71,-79.40
4694.24,-74.79
4715.77,-74.71
4737.30,-77.76
4758.84,-77.84
4780.37,-79.79
4801.90,-80.02
4823.44,-75.02
4844.97,-73.46
4866.50,-74.95
4888.04,-74.40
4909.57,-75.80
4931.10,-78.38
4952.64,-78.85
4974.17,-81.04
4995.70,-83.07
5017.24,-82.13
5038.77,-83.38
5060.30,-85.57
5081.84,-82.68
5103.37,-80.88
5124.90,-81.98
5146.44,-83.31
5167.97,-84.87
5189.50,-82.45
5211.04,-78.70
5232.57,-77.84
5254.10,-80.81
5275.63,-81.67
5297.17,-83.93
5318.70,-85.49
5340.23,-80.96
5361.77,-78.23
5383.30,-79.40
5404.83,-78.07
5426.37,-78.31
5447.90,-81.35
5469.43,-82.45
5490.97,-83.85
5512.50,-83.31
5534.03,-81.20
5555.57,-81.51
5577.10,-85.81
5598.63,-84.87
5620.17,-81.27
5641.70,-81.35
5663.23,-81.82
5684.77,-82.45
5706.30,-85.96
5727.83,-84.24
5749.37,-81.74
5770.90,-82.92
5792.43,-83.70
5813.96,-84.01
5835.50,-87.37
5857.03,-86.35
5878.56,-81.82
5900.10,-81.43
5921.63,-81.82
5943.16,-81.67
5964.70,-85.34
5986.23,-89.95
6007.76,-87.14
6029.30,-84.87
6050.83,-83.70
6072.36,-82.60
6093.90,-85.57
6115.43,-89.95
6136.96,-87.76
6158.50,-85.73
6180.03,-85.57
6201.56,-83.62
6223.10,-86.20
6244.63,-89.17
6266.16,-89.71
6287.70,-88.93
6309.23,-88.78
6330.76,-86.67
6352.29,-88.78
6373.83,-92.29
6395.36,-90.96
6416.89,-89.25
6438.43,-89.48
6459.96,-87.21
6481.49,-89.32
6503.03,-93.15
6524.56,-88.78
6546.09,-86.82
6567.63,-87.14
6589.16,-85.81
6610.69,-88.07
6632.23,-93.31
6653.76,-88.85
6675.29,-86.98
6696.83,-88.46
6718.36,-87.84
6739.89,-90.26
6761.43,-94.01
6782.96,-89.64
6804.49,-86.74
6826.03,-88.39
6847.56,-88.78
6869.09,-90.57
6890.63,-94.17
6912.16,-90.57
6933.69,-87.76
6955.22,-89.01
6976.76,-89.25
6998.29,-91.36
7019.82,-94.17
7041.36,-91.12
7062.89,-88.31
7084.42,-89.17
7105.96,-89.71
7127.49,-92.29
7149.02,-93.78
7170.56,-91.28
7192.09,-88.39
7213.62,-89.25
7235.16,-90.18
7256.69,-92.76
7278.22,-94.64
7299.76,-91.36
7321.29,-88.46
7342.82,-89.48
7364.36,-90.96
7385.89,-93.07
7407.42,-91.67
7428.96,-90.26
7450.49,-88.70
7472.02,-89.87
7493.55,-90.11
7515.09,-91.98
7536.62,-94.17
7558.15,-91.98
7579.69,-89.01
7601.22,-89.25
7622.75,-89.87
7644.29,-91.75
7665.82,-93.07
7687.35,-91.43
7708.89,-90.03
7730.42,-91.12
7751.95,-91.43
7773.49,-93.07
7795.02,-95.34
7816.55,-94.40
7838.09,-91.75
7859.62,-90.81
7881.15,-90.96
7902.69,-91.28
7924.22,-92.84
7945.75,-91.82
7967.29,-91.04
7988.82,-92.29
8010.35,-93.31
8031.88,-93.93
8053.42,-95.89
8074.95,-94.17
8096.48,-91.20
8118.02,-89.95
8139.55,-90.65
8161.08,-91.28
8182.62,-93.47
8204.15,-94.48
8225.68,-94.25
8247.22,-94.40
8268.75,-94.32
8290.28,-94.95
8311.82,-97.14
8333.35,-97.22
8354.88,-94.95
8376.42,-92.76
8397.95,-93.31
8419.48,-93.07
8441.02,-94.40
8462.55,-94.64
8484.08,-94.01
8505.62,-94.95
8527.15,-95.26
8548.68,-96.36
8570.21,-97.61
8591.75,-95.81
8613.28,-93.62
8634.81,-92.53
8656.35,-93.70
8677.88,-94.48
8699.41,-96.83
8720.95,-98.08
8742.48,-96.36
8764.01,-94.56
8785.55,-95.11
8807.08,-95.11
8828.61,-96.75
8850.15,-98.23
8871.68,-95.03
8893.21,-91.98
8914.75,-92.92
8936.28,-93.54
8957.81,-94.87
8979.35,-98.78
9000.88,-97.84
9022.41,-94.25
9043.95,-94.48
9065.48,-94.87
9087.01,-95.97
9108.54,-99.25
9130.08,-98.70
9151.61,-94.87
9173.14,-94.79
9194.68,-95.58
9216.21,-97.06
9237.74,-98.62
9259.28,-97.37
9280.81,-93.93
9302.34,-93.54
9323.88,-94.25
9345.41,-96.04
9366.94,-99.56
9388.48,-98.31
9410.01,-94.79
9431.54,-94.09
9453.08,-94.79
9474.61,-95.97
9496.14,-99.40
9517.68,-99.17
9539.21,-95.50
9560.74,-94.72
9582.28,-95.50
9603.81,-96.59
9625.34,-99.01
9646.88,-99.79
9668.41,-97.22
9689.94,-95.89
9711.47,-95.89
9733.01,-96.75
9754.54,-97.37
9776.07,-96.90
9797.61,-95.34
9819.14,-95.34
9840.67,-96.12
9862.21,-96.90
9883.74,-99.25
9905.27,-98.47
9926.81,-97.06
9948.34,-96.67
9969.87,-97.45
9991.41,-98.15
10012.94,-98.78
10034.47,-98.00
10056.01,-96.43
10077.54,-96.36
10099.07,-97.84
10120.61,-98.39
10142.14,-101.12
10163.67,-99.79
10185.21,-98.54
10206.74,-97.06
10228.27,-97.68
10249.80,-97.84
10271.34,-99.09
10292.87,-97.61
10314.40,-96.59
10335.94,-95.89
10357.47,-96.90
10379.00,-98.00
10400.54,-100.03
10422.07,-99.40
10443.60,-98.62
10465.14,-97.22
10486.67,-97.45
10508.20,-98.15
10529.74,-99.64
10551.27,-99.48
10572.80,-97.84
10594.34,-97.53
10615.87,-98.31
10637.40,-99.17
10658.94,-100.89
10680.47,-100.89
10702.00,-99.33
10723.54,-98.54
10745.07,-98.15
10766.60,-98.39
10788.13,-99.56
10809.67,-99.33
10831.20,-97.68
10852.73,-97.61
10874.27,-98.62
10895.80,-99.64
10917.33,-101.12
10938.87,-100.19
10960.40,-98.62
10981.93,-98.31
11003.47,-99.17
11025.00,-100.03
11046.53,-100.81
11068.07,-100.42
11089.60,-98.86
11111.13,-98.94
11132.67,-99.33
11154.20,-99.25
11175.73,-100.73
11197.27,-100.97
11218.80,-99.64
11240.33,-100.03
11261.87,-99.79
11283.40,-100.03
11304.93,-101.05
11326.46,-101.36
11348.00,-100.65
11369.53,-100.42
11391.06,-100.89
11412.60,-101.83
11434.13,-102.06
11455.66,-102.22
11477.20,-102.06
11498.73,-102.37
11520.26,-101.59
11541.80,-101.75
11563.33,-101.75
11584.86,-102.14
11606.40,-101.44
11627.93,-101.83
11649.46,-101.75
11671.00,-101.90
11692.53,-101.51
11714.06,-102.45
11735.60,-103.08
11757.13,-104.17
11778.66,-104.09
11800.20,-103.39
11821.73,-102.53
11843.26,-102.69
11864.79,-103.70
11886.33,-105.19
11907.86,-105.34
11929.39,-103.94
11950.93,-103.23
11972.46,-102.61
11993.99,-102.92
12015.53,-104.33
12037.06,-105.97
12058.59,-105.03
12080.13,-103.94
12101.66,-103.31
12123.19,-103.70
12144.73,-104.64
12166.26,-105.34
12187.79,-105.73
12209.33,-104.80
12230.86,-104.87
12252.39,-105.73
12273.93,-106.98
12295.46,-106.67
12316.99,-106.44
12338.53,-105.26
12360.06,-104.87
12381.59,-106.12
12403.13,-107.69
12424.66,-108.08
12446.19,-106.59
12467.72,-105.97
12489.26,-105.89
12510.79,-106.52
12532.32,-107.84
12553.86,-109.48
12575.39,-108.00
12596.92,-107.22
12618.46,-106.59
12639.99,-107.30
12661.52,-108.08
12683.06,-109.48
12704.59,-109.64
12726.12,-108.47
12747.66,-107.22
12769.19,-108.23
12790.72,-109.56
12812.26,-110.89
12833.79,-109.41
12855.32,-109.25
12876.86,-109.25
12898.39,-109.95
12919.92,-111.67
12941.46,-111.59
12962.99,-109.41
12984.52,-109.17
13006.05,-109.25
13027.59,-109.95
13049.12,-111.13
13070.65,-113.00
13092.19,-111.28
13113.72,-110.27
13135.25,-110.03
13156.79,-111.05
13178.32,-111.91
13199.85,-112.61
13221.39,-111.52
13242.92,-110.97
13264.45,-110.42
13285.99,-110.74
13307.52,-111.28
13329.05,-111.20
13350.59,-112.30
13372.12,-112.14
13393.65,-112.30
13415.19,-112.92
13436.72,-113.78
13458.25,-113.47
13479.79,-111.36
13501.32,-110.89
13522.85,-111.05
13544.38,-110.97
13565.92,-112.77
13587.45,-112.30
13608.98,-112.84
13630.52,-111.75
13652.05,-110.97
13673.58,-111.13
13695.12,-111.75
13716.65,-112.06
13738.18,-112.45
13759.72,-111.91
13781.25,-111.52
13802.78,-111.05
13824.32,-111.36
13845.85,-112.22
13867.38,-112.84
13888.92,-112.14
13910.45,-111.83
13931.98,-111.75
13953.52,-110.89
13975.05,-110.34
13996.58,-110.58
14018.12,-111.83
14039.65,-111.99
14061.18,-111.59
14082.71,-111.59
14104.25,-111.28
14125.78,-111.28
14147.31,-111.83
14168.85,-112.06
14190.38,-111.75
14211.91,-111.36
14233.45,-110.97
14254.98,-110.97
14276.51,-111.28
14298.05,-112.45
14319.58,-112.06
14341.11,-112.06
14362.65,-112.45
14384.18,-111.59
14405.71,-110.74
14427.25,-110.74
14448.78,-110.74
14470.31,-111.05
14491.85,-110.74
14513.38,-110.97
14534.91,-111.67
14556.45,-112.06
14577.98,-111.28
14599.51,-111.75
14621.04,-112.45
14642.58,-112.92
14664.11,-112.61
14685.64,-112.14
14707.18,-110.97
14728.71,-111.13
14750.24,-111.67
14771.78,-112.45
14793.31,-112.69
14814.84,-112.38
14836.38,-111.13
14857.91,-110.58
14879.44,-111.28
14900.98,-111.99
14922.51,-112.69
14944.04,-112.45
14965.58,-111.44
14987.11,-111.44
15008.64,-111.91
15030.18,-112.45
15051.71,-113.08
15073.24,-112.38
15094.78,-111.99
15116.31,-111.75
15137.84,-112.14
15159.38,-112.84
15180.91,-111.59
15202.44,-111.13
15223.97,-110.97
15245.51,-110.81
15267.04,-111.20
15288.57,-111.99
15310.11,-112.45
15331.64,-111.59
15353.17,-111.28
15374.71,-110.81
15396.24,-111.44
15417.77,-112.30
15439.31,-113.08
15460.84,-112.38
15482.37,-111.91
15503.91,-111.05
15525.44,-111.20
15546.97,-111.44
15568.51,-111.44
15590.04,-110.74
15611.57,-110.97
15633.11,-110.81
15654.64,-111.28
15676.17,-111.52
15697.71,-111.99
15719.24,-111.28
15740.77,-111.59
15762.30,-111.59
15783.84,-112.53
15805.37,-112.30
15826.90,-112.06
15848.44,-111.75
15869.97,-111.75
15891.50,-112.06
15913.04,-112.69
15934.57,-113.00
15956.10,-113.16
15977.64,-112.06
15999.17,-111.99
16020.70,-112.22
16042.24,-112.38
16063.77,-112.14
16085.30,-111.83
16106.84,-112.06
16128.37,-112.30
16149.90,-112.77
16171.44,-113.31
16192.97,-113.39
16214.50,-113.63
16236.04,-113.55
16257.57,-113.70
16279.10,-114.17
16300.63,-114.17
16322.17,-113.16
16343.70,-112.77
16365.23,-113.31
16386.77,-113.47
16408.30,-113.78
16429.83,-114.49
16451.37,-114.25
16472.90,-114.25
16494.43,-113.47
16515.97,-113.47
16537.50,-113.78
16559.03,-114.41
16580.57,-114.33
16602.10,-113.94
16623.63,-114.10
16645.17,-114.33
16666.70,-114.49
16688.23,-115.11
16709.77,-114.72
16731.30,-114.56
16752.83,-114.25
16774.37,-114.25
16795.90,-114.10
16817.43,-114.33
16838.96,-114.10
16860.50,-113.94
16882.03,-114.33
16903.56,-114.95
16925.10,-114.80
16946.63,-114.95
16968.16,-114.64
16989.70,-114.72
17011.23,-114.41
17032.76,-114.33
17054.30,-114.10
17075.83,-114.02
17097.36,-113.94
17118.90,-113.94
17140.43,-113.55
17161.96,-113.70
17183.50,-114.02
17205.03,-114.95
17226.56,-115.03
17248.10,-115.19
17269.63,-114.49
17291.16,-114.02
17312.70,-115.03
17334.23,-115.11
17355.76,-115.19
17377.29,-116.13
17398.83,-116.28
17420.36,-116.21
17441.89,-115.81
17463.43,-115.66
17484.96,-116.05
17506.49,-115.97
17528.03,-116.60
17549.56,-116.83
17571.09,-116.52
17592.63,-115.74
17614.16,-115.89
17635.69,-115.89
17657.23,-117.06
17678.76,-117.53
17700.29,-118.39
17721.83,-117.69
17743.36,-118.16
17764.89,-119.10
17786.43,-120.82
17807.96,-120.74
17829.49,-120.11
17851.03,-119.10
17872.56,-119.33
17894.09,-119.57
17915.63,-119.88
17937.16,-119.64
17958.69,-120.27
17980.22,-119.96
18001.76,-120.66
18023.29,-121.13
18044.82,-121.99
18066.36,-122.14
18087.89,-121.83
18109.42,-121.60
18130.96,-121.99
18152.49,-123.71
18174.02,-125.11
18195.56,-123.32
18217.09,-123.55
18238.62,-123.79
18260.16,-124.64
18281.69,-126.44
18303.22,-125.50
18324.76,-122.85
18346.29,-121.99
18367.82,-121.68
18389.36,-122.46
18410.89,-122.61
18432.42,-123.39
18453.96,-123.16
18475.49,-123.55
18497.02,-123.94
18518.55,-125.50
18540.09,-126.68
18561.62,-125.82
18583.15,-123.47
18604.69,-123.39
18626.22,-123.63
18647.75,-124.80
18669.29,-124.64
18690.82,-123.63
18712.35,-122.38
18733.89,-122.85
18755.42,-123.79
18776.95,-125.11
18798.49,-125.97
18820.02,-124.18
18841.55,-123.71
18863.09,-124.02
18884.62,-123.94
18906.15,-126.44
18927.69,-126.99
18949.22,-127.46
18970.75,-125.66
18992.29,-124.88
19013.82,-124.88
19035.35,-126.05
19056.88,-125.35
19078.42,-126.05
19099.95,-125.27
19121.48,-125.66
19143.02,-125.89
19164.55,-127.15
19186.08,-127.38
19207.62,-128.08
19229.15,-127.22
19250.68,-128.63
19272.22,-128.63
19293.75,-130.04
19315.28,-132.77
19336.82,-130.43
19358.35,-130.66
19379.88,-130.19
19401.42,-130.04
19422.95,-130.66
19444.48,-131.13
19466.02,-130.43
19487.55,-129.26
19509.08,-129.33
19530.62,-131.21
19552.15,-132.46
19573.68,-131.83
19595.21,-131.83
19616.75,-132.15
19638.28,-132.85
19659.81,-130.97
19681.35,-130.90
19702.88,-129.33
19724.41,-129.88
19745.95,-129.18
19767.48,-127.93
19789.01,-127.22
19810.55,-126.83
19832.08,-125.66
19853.61,-126.21
19875.15,-126.52
19896.68,-127.30
19918.21,-126.91
19939.75,-127.22
19961.28,-127.61
19982.81,-126.91
20004.35,-127.07
20025.88,-128.55
20047.41,-128.16
20068.95,-127.69
20090.48,-127.61
20112.01,-127.07
20133.54,-127.22
20155.08,-126.52
20176.61,-125.27
20198.14,-125.66
20219.68,-125.89
20241.21,-125.11
20262.74,-125.58
20284.28,-125.82
20305.81,-126.13
20327.34,-125.43
20348.88,-125.43
20370.41,-125.74
20391.94,-126.05
20413.48,-126.21
20435.01,-126.83
20456.54,-126.21
20478.08,-127.77
20499.61,-130.19
20521.14,-129.10
20542.68,-129.26
20564.21,-128.40
20585.74,-128.16
20607.28,-128.40
20628.81,-128.00
20650.34,-128.16
20671.88,-127.38
20693.41,-127.22
20714.94,-126.91
20736.47,-126.75
20758.01,-128.16
20779.54,-128.63
20801.07,-128.32
20822.61,-128.16
20844.14,-129.57
20865.67,-129.41
20887.21,-130.04
20908.74,-131.21
20930.27,-131.29
20951.81,-130.04
20973.34,-131.05
20994.87,-130.19
21016.41,-130.35
21037.94,-132.62
21059.47,-133.08
21081.01,-130.97
21102.54,-130.51
21124.07,-130.11
21145.61,-128.94
21167.14,-128.71
21188.67,-129.49
21210.21,-129.33
21231.74,-128.94
21253.27,-129.18
21274.80,-128.08
21296.34,-127.22
21317.87,-127.93
21339.40,-127.22
21360.94,-127.38
21382.47,-127.07
21404.00,-126.83
21425.54,-126.36
21447.07,-127.61
21468.60,-127.93
21490.14,-128.16
21511.67,-126.99
21533.20,-127.61
21554.74,-127.46
21576.27,-127.15
21597.80,-126.99
21619.34,-126.83
21640.87,-126.52
21662.40,-125.89
21683.94,-125.97
21705.47,-124.96
21727.00,-124.33
21748.54,-124.80
21770.07,-124.18
21791.60,-123.79
21813.13,-124.57
21834.67,-123.79
21856.20,-123.39
21877.73,-123.55
21899.27,-123.24
21920.80,-123.08
21942.33,-124.25
21963.87,-124.88
21985.40,-124.80
22006.93,-124.96
22028.47,-124.64
22050.00,-124.25
