Frequency (Hz),Power (dB),44100.0000,2048,0,2.0000,0,L+R
0.00,-52.13
21.53,-50.17
43.07,-19.93
64.60,-13.45
86.13,-18.92
107.67,-39.94
129.20,-33.06
150.73,-38.06
172.27,-46.58
193.80,-39.62
215.33,-44.31
236.87,-55.10
258.40,-48.61
279.93,-52.60
301.46,-54.00
323.00,-46.11
344.53,-49.39
366.06,-45.33
387.60,-37.28
409.13,-40.09
430.66,-55.10
452.20,-53.30
473.73,-55.57
495.26,-62.44
516.80,-55.41
538.33,-57.44
559.86,-62.13
581.40,-54.24
602.93,-55.88
624.46,-59.24
646.00,-50.56
667.53,-51.74
689.06,-57.28
710.60,-50.41
732.13,-51.58
753.66,-55.17
775.20,-47.52
796.73,-48.06
818.26,-55.57
839.79,-50.80
861.33,-50.80
882.86,-56.97
904.39,-52.60
925.93,-52.75
947.46,-57.13
968.99,-51.58
990.53,-51.42
1012.06,-56.89
1033.59,-53.06
1055.13,-52.36
1076.66,-57.05
1098.19,-53.22
1119.73,-51.81
1141.26,-55.88
1162.79,-51.81
1184.33,-50.17
1205.86,-54.24
1227.39,-51.66
1248.93,-49.55
1270.46,-54.94
1291.99,-59.08
1313.53,-56.89
1335.06,-60.33
1356.59,-60.02
1378.13,-58.07
1399.66,-60.33
1421.19,-58.22
1442.72,-56.03
1464.26,-59.86
1485.79,-63.38
1507.32,-62.05
1528.86,-62.68
1550.39,-59.79
1571.92,-57.60
1593.46,-59.94
1614.99,-60.33
1636.52,-58.30
1658.06,-59.63
1679.59,-59.47
1701.12,-57.52
1722.66,-59.24
1744.19,-61.74
1765.72,-61.43
1787.26,-61.19
1808.79,-60.25
1830.32,-58.93
1851.86,-58.46
1873.39,-57.21
1894.92,-55.88
1916.46,-55.80
1937.99,-56.19
1959.52,-56.66
1981.05,-55.88
2002.59,-53.92
2024.12,-53.69
2045.65,-54.39
2067.19,-56.19
2088.72,-59.00
2110.25,-58.53
2131.79,-58.61
2153.32,-61.04
2174.85,-59.24
2196.39,-57.13
2217.92,-58.61
2239.45,-57.36
2260.99,-55.25
2282.52,-56.89
2304.05,-55.64
2325.59,-53.38
2347.12,-55.64
2368.65,-53.85
2390.19,-50.25
2411.72,-52.13
2433.25,-50.95
2454.79,-49.31
2476.32,-55.02
2497.85,-55.02
2519.38,-52.99
2540.92,-57.68
2562.45,-55.41
2583.98,-50.80
2605.52,-53.61
2627.05,-53.14
2648.58,-50.02
2670.12,-55.02
2691.65,-55.10
2713.18,-50.88
2734.72,-55.25
2756.25,-56.42
2777.78,-52.99
2799.32,-58.22
2820.85,-60.10
2842.38,-52.67
2863.92,-54.47
2885.45,-55.33
2906.98,-48.14
2928.52,-50.95
2950.05,-53.46
2971.58,-46.58
2993.12,-49.55
3014.65,-53.38
3036.18,-47.83
3057.71,-51.35
3079.25,-55.80
3100.78,-47.91
3122.31,-49.63
3143.85,-53.61
3165.38,-46.50
3186.91,-49.16
3208.45,-56.27
3229.98,-49.39
3251.51,-51.89
3273.05,-59.63
3294.58,-51.19
3316.11,-52.13
3337.65,-58.46
3359.18,-50.10
3380.71,-50.80
3402.25,-59.08
3423.78,-49.86
3445.31,-50.56
3466.85,-59.08
3488.38,-49.70
3509.91,-50.02
3531.45,-58.77
3552.98,-49.31
3574.51,-49.16
3596.04,-58.77
3617.58,-48.77
3639.11,-47.99
3660.64,-58.07
3682.18,-48.38
3703.71,-47.36
3725.24,-57.75
3746.78,-50.56
3768.31,-49.24
3789.84,-59.08
3811.38,-54.39
3832.91,-52.60
3854.44,-61.66
3875.98,-57.52
3897.51,-55.33
3919.04,-64.08
3940.58,-63.46
3962.11,-60.41
3983.64,-67.05
4005.18,-62.29
4026.71,-59.94
4048.24,-67.99
4069.78,-59.39
4091.31,-56.19
4112.84,-63.77
4134.38,-59.86
4155.91,-56.03
4177.44,-63.07
4198.97,-58.07
4220.51,-54.39
4242.04,-61.82
4263.57,-57.99
4285.11,-53.06
4306.64,-59.08
4328.17,-60.02
4349.71,-54.47
4371.24,-59.63
4392.77,-64.00
4414.31,-58.61
4435.84,-63.30
4457.37,-63.69
4478.91,-58.69
4500.44,-63.77
4521.97,-62.21
4543.51,-56.97
4565.04,-61.58
4586.57,-60.96
4608.11,-55.25
4629.64,-59.47
4651.17,-61.50
4672.71,-55.10
4694.24,-58.14
4715.77,-62.52
4737.30,-56.35
4758.84,-58.61
4780.37,-60.25
4801.90,-55.41
4823.44,-58.38
4844.97,-59.16
4866.50,-53.53
4888.04,-55.80
4909.57,-59.86
4931.10,-55.17
4952.64,-56.11
4974.17,-59.86
4995.70,-56.97
5017.24,-58.30
5038.77,-57.21
5060.30,-53.46
5081.84,-56.66
5103.37,-56.11
5124.90,-51.27
5146.44,-52.44
5167.97,-54.86
5189.50,-52.44
5211.04,-52.36
5232.57,-54.86
5254.10,-53.69
5275.63,-53.46
5297.17,-55.10
5318.70,-54.39
5340.23,-54.47
5361.77,-57.68
5383.30,-58.61
5404.83,-55.72
5426.37,-55.96
5447.90,-57.21
5469.43,-59.08
5490.97,-58.07
5512.50,-55.57
5534.03,-55.96
5555.57,-58.69
5577.10,-61.04
5598.63,-56.66
5620.17,-57.60
5641.70,-64.71
5663.23,-64.79
5684.77,-63.69
5706.30,-64.86
5727.83,-65.65
5749.37,-64.08
5770.90,-63.38
5792.43,-63.77
5813.96,-61.82
5835.50,-61.27
5857.03,-61.66
5878.56,-61.82
5900.10,-64.86
5921.63,-63.15
5943.16,-60.33
5964.70,-62.60
5986.23,-66.11
6007.76,-65.80
6029.30,-67.21
6050.83,-66.19
6072.36,-63.22
6093.90,-64.71
6115.43,-68.77
6136.96,-63.22
6158.50,-60.25
6180.03,-64.00
6201.56,-62.83
6223.10,-60.41
6244.63,-61.66
6266.16,-58.77
6287.70,-59.32
6309.23,-63.54
6330.76,-59.16
6352.29,-58.53
6373.83,-64.08
6395.36,-61.89
6416.89,-61.04
6438.43,-65.10
6459.96,-60.25
6481.49,-58.85
6503.03,-64.94
6524.56,-62.83
6546.09,-60.57
6567.63,-65.72
6589.16,-62.52
6610.69,-60.96
6632.23,-68.22
6653.76,-64.94
6675.29,-63.54
6696.83,-71.35
6718.36,-64.79
6739.89,-61.11
6761.43,-67.37
6782.96,-65.49
6804.49,-60.41
6826.03,-65.49
6847.56,-65.72
6869.09,-61.66
6890.63,-67.37
6912.16,-62.99
6933.69,-58.38
6955.22,-64.40
6976.76,-66.82
6998.29,-61.58
7019.82,-66.82
7041.36,-65.26
7062.89,-59.32
7084.42,-64.55
7105.96,-66.43
7127.49,-59.63
7149.02,-64.08
7170.56,-67.99
7192.09,-61.27
7213.62,-65.72
7235.16,-66.51
7256.69,-59.24
7278.22,-63.38
7299.76,-69.40
7321.29,-61.58
7342.82,-64.94
7364.36,-67.68
7385.89,-59.24
7407.42,-62.44
7428.96,-70.26
7450.49,-61.58
7472.02,-64.32
7493.55,-69.16
7515.09,-60.10
7536.62,-62.52
7558.15,-71.98
7579.69,-63.61
7601.22,-65.57
7622.75,-71.90
7644.29,-62.36
7665.82,-64.00
7687.35,-72.44
7708.89,-62.83
7730.42,-64.16
7751.95,-74.16
7773.49,-63.54
7795.02,-63.93
7816.55,-72.13
7838.09,-62.05
7859.62,-62.36
7881.15,-70.26
7902.69,-61.50
7924.22,-62.13
7945.75,-70.49
7967.29,-61.04
7988.82,-60.80
8010.35,-70.49
8031.88,-62.21
8053.42,-60.41
8074.95,-67.60
8096.48,-61.50
8118.02,-60.10
8139.55,-68.38
8161.08,-65.57
8182.62,-64.16
8204.15,-71.58
8225.68,-65.10
8247.22,-62.36
8268.75,-68.77
8290.28,-66.90
8311.82,-64.16
8333.35,-69.55
8354.88,-66.66
8376.42,-64.47
8397.95,-70.18
8419.48,-65.80
8441.02,-63.93
8462.55,-70.65
8484.08,-67.44
8505.62,-64.40
8527.15,-69.55
8548.68,-68.54
8570.21,-64.16
8591.75,-67.21
8613.28,-65.41
8634.81,-63.15
8656.35,-68.38
8677.88,-65.10
8699.41,-63.07
8720.95,-68.54
8742.48,-65.33
8764.01,-61.50
8785.55,-64.47
8807.08,-63.15
8828.61,-60.02
8850.15,-63.54
8871.68,-62.91
8893.21,-60.88
8914.75,-64.71
8936.28,-64.47
8957.81,-61.35
8979.35,-63.46
9000.88,-66.04
9022.41,-62.44
9043.95,-62.52
9065.48,-63.85
9087.01,-62.05
9108.54,-63.22
9130.08,-64.86
9151.61,-65.26
9173.14,-67.60
9194.68,-69.24
9216.21,-67.21
9237.74,-65.57
9259.28,-65.26
9280.81,-65.18
9302.34,-66.19
9323.88,-66.27
9345.41,-67.60
9366.94,-69.94
9388.48,-69.87
9410.01,-69.24
9431.54,-67.13
9453.08,-66.27
9474.61,-67.91
9496.14,-68.38
9517.68,-67.52
9539.21,-69.71
9560.74,-71.51
9582.28,-72.99
9603.81,-75.49
9625.34,-70.57
9646.88,-70.57
9668.41,-76.27
9689.94,-72.05
9711.47,-70.57
9733.01,-75.80
9754.54,-78.93
9776.07,-75.34
9797.61,-76.35
9819.14,-77.60
9840.67,-74.16
9862.21,-75.73
9883.74,-75.41
9905.27,-71.66
9926.81,-74.01
9948.34,-75.49
9969.87,-71.19
9991.41,-73.07
10012.94,-76.27
10034.47,-71.19
10056.01,-71.98
10077.54,-74.09
10099.07,-68.30
10120.61,-69.24
10142.14,-73.54
10163.67,-68.46
10185.21,-69.01
10206.74,-73.46
10228.27,-69.94
10249.80,-71.51
10271.34,-73.54
10292.87,-69.24
10314.40,-72.29
10335.94,-74.24
10357.47,-67.05
10379.00,-68.54
10400.54,-75.65
10422.07,-71.12
10443.60,-72.52
10465.14,-81.27
10486.67,-72.76
10508.20,-71.04
10529.74,-75.73
10551.27,-69.87
10572.80,-69.63
10594.34,-78.07
10615.87,-73.69
10637.40,-72.52
10658.94,-78.77
10680.47,-68.38
10702.00,-66.97
10723.54,-75.96
10745.07,-68.85
10766.60,-67.13
10788.13,-76.51
10809.67,-73.38
10831.20,-71.58
10852.73,-78.62
10874.27,-68.46
10895.80,-66.11
10917.33,-74.87
10938.87,-69.63
10960.40,-67.13
10981.93,-76.27
11003.47,-73.07
11025.00,-69.71
11046.53,-77.13
11068.07,-69.24
11089.60,-65.26
11111.13,-73.07
11132.67,-70.96
11154.20,-66.74
11175.73,-73.77
11197.27,-73.30
11218.80,-68.93
11240.33,-75.10
11261.87,-72.52
11283.40,-67.52
11304.93,-73.46
11326.46,-74.71
11348.00,-68.93
11369.53,-74.09
11391.06,-78.38
11412.60,-72.84
11434.13,-77.84
11455.66,-79.32
11477.20,-73.93
11498.73,-78.77
11520.26,-79.95
11541.80,-74.63
11563.33,-78.93
11584.86,-78.70
11606.40,-72.76
11627.93,-77.29
11649.46,-76.98
11671.00,-70.88
11692.53,-75.34
11714.06,-75.57
11735.60,-70.96
11757.13,-75.41
11778.66,-75.57
11800.20,-68.69
11821.73,-72.37
11843.26,-75.02
11864.79,-67.83
11886.33,-70.96
11907.86,-78.38
11929.39,-70.96
11950.93,-72.21
11972.46,-76.04
11993.99,-68.30
12015.53,-69.01
12037.06,-73.30
12058.59,-66.66
12080.13,-67.83
12101.66,-73.54
12123.19,-69.79
12144.73,-72.52
12166.26,-78.54
12187.79,-71.35
12209.33,-71.27
12230.86,-77.37
12252.39,-72.05
12273.93,-69.79
12295.46,-75.73
12316.99,-74.55
12338.53,-71.90
12360.06,-75.49
12381.59,-73.54
12403.13,-72.84
12424.66,-76.12
12446.19,-73.69
12467.72,-73.85
12489.26,-79.09
12510.79,-78.62
12532.32,-78.31
12553.86,-80.49
12575.39,-76.90
12596.92,-75.34
12618.46,-76.04
12639.99,-72.21
12661.52,-71.35
12683.06,-73.38
12704.59,-71.19
12726.12,-73.23
12747.66,-77.05
12769.19,-72.60
12790.72,-73.62
12812.26,-77.37
12833.79,-74.71
12855.32,-72.60
12876.86,-73.85
12898.39,-74.87
12919.92,-71.66
12941.46,-71.51
12962.99,-72.60
12984.52,-71.27
13006.05,-72.05
13027.59,-72.44
13049.12,-72.91
13070.65,-75.49
13092.19,-77.37
13113.72,-75.96
13135.25,-75.10
13156.79,-76.20
13178.32,-74.40
13199.85,-72.84
13221.39,-74.79
13242.92,-74.71
13264.45,-73.46
13285.99,-76.12
13307.52,-79.56
13329.05,-78.85
13350.59,-79.87
13372.12,-80.88
13393.65,-78.62
13415.19,-78.31
13436.72,-79.79
13458.25,-78.15
13479.79,-78.15
13501.32,-81.35
13522.85,-79.56
13544.38,-76.74
13565.92,-79.09
13587.45,-79.63
13608.98,-75.96
13630.52,-78.77
13652.05,-79.79
13673.58,-77.37
13695.12,-81.51
13716.65,-80.73
13738.18,-75.65
13759.72,-78.23
13781.25,-77.84
13802.78,-73.15
13824.32,-76.90
13845.85,-77.76
13867.38,-73.54
13888.92,-78.15
13910.45,-80.65
13931.98,-78.23
13953.52,-82.84
13975.05,-78.15
13996.58,-73.85
14018.12,-78.38
14039.65,-76.35
14061.18,-72.21
14082.71,-77.52
14104.25,-77.84
14125.78,-72.99
14147.31,-78.15
14168.85,-82.45
14190.38,-74.63
14211.91,-77.21
14233.45,-79.48
14254.98,-71.51
14276.51,-74.16
14298.05,-79.32
14319.58,-71.35
14341.11,-74.01
14362.65,-80.57
14384.18,-72.68
14405.71,-75.34
14427.25,-80.42
14448.78,-72.84
14470.31,-75.96
14491.85,-79.95
14513.38,-71.43
14534.91,-74.32
14556.45,-80.49
14577.98,-71.58
14599.51,-74.09
14621.04,-82.99
14642.58,-73.85
14664.11,-75.73
14685.64,-84.87
14707.18,-75.57
14728.71,-76.74
14750.24,-84.79
14771.78,-75.41
14793.31,-76.20
14814.84,-86.04
14836.38,-77.05
14857.91,-77.52
14879.44,-88.23
14900.98,-79.16
14922.51,-78.93
14944.04,-86.04
14965.58,-76.74
14987.11,-76.20
15008.64,-85.34
15030.18,-77.45
15051.71,-76.51
15073.24,-86.20
15094.78,-78.38
15116.31,-77.21
15137.84,-86.28
15159.38,-78.07
15180.91,-76.59
15202.44,-85.49
15223.97,-75.96
15245.51,-73.77
15267.04,-82.99
15288.57,-77.29
15310.11,-74.95
15331.64,-83.93
15353.17,-79.16
15374.71,-76.59
15396.24,-84.56
15417.77,-79.01
15439.31,-75.41
15460.84,-81.59
15482.37,-77.21
15503.91,-73.54
15525.44,-80.18
15546.97,-78.15
15568.51,-73.85
15590.04,-80.10
15611.57,-81.98
15633.11,-77.45
15654.64,-82.84
15676.17,-83.31
15697.71,-77.99
15719.24,-82.29
15740.77,-83.15
15762.30,-76.35
15783.84,-79.09
15805.37,-82.60
15826.90,-76.82
15848.44,-80.02
15869.97,-85.03
15891.50,-80.57
15913.04,-83.93
15934.57,-90.42
15956.10,-85.42
15977.64,-86.59
15999.17,-87.29
16020.70,-82.68
16042.24,-84.95
16063.77,-88.46
16085.30,-82.60
16106.84,-82.60
16128.37,-87.45
16149.90,-85.26
16171.44,-85.57
16192.97,-85.57
16214.50,-84.24
16236.04,-89.25
16257.57,-86.98
16279.10,-83.07
16300.63,-84.87
16322.17,-87.29
16343.70,-86.04
16365.23,-88.00
16386.77,-88.31
16408.30,-86.43
16429.83,-86.35
16451.37,-85.73
16472.90,-82.68
16494.43,-82.84
16515.97,-83.46
16537.50,-82.29
16559.03,-84.09
16580.57,-84.17
16602.10,-83.31
16623.63,-85.89
16645.17,-85.96
16666.70,-84.48
16688.23,-86.43
16709.77,-83.93
16731.30,-82.06
16752.83,-83.46
16774.37,-81.67
16795.90,-80.57
16817.43,-82.37
16838.96,-82.37
16860.50,-82.53
16882.03,-83.15
16903.56,-83.85
16925.10,-85.65
16946.63,-85.73
16968.16,-84.95
16989.70,-85.89
17011.23,-83.62
17032.76,-81.90
17054.30,-84.40
17075.83,-82.13
17097.36,-80.42
17118.90,-83.70
17140.43,-83.54
17161.96,-81.27
17183.50,-83.15
17205.03,-85.34
17226.56,-82.06
17248.10,-81.43
17269.63,-85.03
17291.16,-81.43
17312.70,-79.24
17334.23,-83.54
17355.76,-81.98
17377.29,-80.57
17398.83,-84.56
17420.36,-84.09
17441.89,-84.71
17463.43,-87.45
17484.96,-82.68
17506.49,-82.29
17528.03,-85.65
17549.56,-80.26
17571.09,-79.48
17592.63,-83.62
17614.16,-79.71
17635.69,-80.02
17657.23,-85.49
17678.76,-82.13
17700.29,-84.79
17721.83,-93.62
17743.36,-86.59
17764.89,-85.96
17786.43,-91.90
17807.96,-85.81
17829.49,-85.26
17851.03,-90.65
17872.56,-82.76
17894.09,-81.27
17915.63,-88.70
17937.16,-84.56
17958.69,-82.29
17980.22,-89.95
18001.76,-92.29
18023.29,-88.39
18044.82,-92.61
18066.36,-89.32
18087.89,-85.89
18109.42,-91.67
18130.96,-88.31
18152.49,-83.85
18174.02,-89.56
18195.56,-87.06
18217.09,-82.68
18238.62,-88.85
18260.16,-89.09
18281.69,-84.63
18303.22,-90.18
18324.76,-92.84
18346.29,-88.39
18367.82,-92.53
18389.36,-90.57
18410.89,-85.26
18432.42,-90.18
18453.96,-91.12
18475.49,-85.34
18497.02,-90.18
18518.55,-90.96
18540.09,-84.32
18561.62,-88.78
18583.15,-92.92
18604.69,-85.73
18626.22,-89.40
18647.75,-95.03
18669.29,-89.01
18690.82,-91.82
18712.35,-94.56
18733.89,-88.00
18755.42,-90.81
18776.95,-94.87
18798.49,-87.60
18820.02,-90.18
18841.55,-95.58
18863.09,-86.90
18884.62,-88.93
18906.15,-96.51
18927.69,-88.15
18949.22,-89.64
18970.75,-96.90
18992.29,-92.14
19013.82,-93.54
19035.35,-97.14
19056.88,-92.68
19078.42,-93.00
19099.95,-97.29
19121.48,-90.89
19143.02,-90.73
19164.55,-98.00
19186.08,-91.59
19207.62,-91.43
19229.15,-98.47
19250.68,-93.86
19272.22,-93.86
19293.75,-99.95
19315.28,-95.81
19336.82,-95.03
19358.35,-99.25
19379.88,-94.32
19401.42,-95.26
19422.95,-100.03
19444.48,-93.47
19466.02,-93.54
19487.55,-99.17
19509.08,-93.78
19530.62,-92.68
19552.15,-97.14
19573.68,-94.32
19595.21,-92.68
19616.75,-96.59
19638.28,-94.40
19659.81,-94.17
19681.35,-97.76
19702.88,-93.62
19724.41,-91.82
19745.95,-95.73
19767.48,-93.86
19789.01,-91.59
19810.55,-95.18
19832.08,-94.64
19853.61,-92.84
19875.15,-96.04
19896.68,-94.32
19918.21,-92.61
19939.75,-96.51
19961.28,-96.75
19982.81,-94.01
20004.35,-95.73
20025.88,-97.45
20047.41,-93.62
20068.95,-94.01
20090.48,-93.70
20112.01,-91.90
20133.54,-94.32
20155.08,-91.28
20176.61,-90.73
20198.14,-95.03
20219.68,-91.59
20241.21,-90.18
20262.74,-93.62
20284.28,-91.75
20305.81,-91.20
20327.34,-95.18
20348.88,-94.56
20370.41,-95.03
20391.94,-99.09
20413.48,-98.62
20435.01,-96.12
20456.54,-95.58
20478.08,-98.15
20499.61,-95.34
20521.14,-91.90
20542.68,-95.18
20564.21,-95.18
20585.74,-91.43
20607.28,-93.70
20628.81,-94.72
20650.34,-91.98
20671.88,-93.31
20693.41,-95.89
20714.94,-94.79
20736.47,-95.58
20758.01,-99.33
20779.54,-99.87
20801.07,-98.47
20822.61,-101.05
20844.14,-101.44
20865.67,-100.58
20887.21,-103.86
20908.74,-102.22
20930.27,-99.87
20951.81,-100.34
20973.34,-98.15
20994.87,-95.11
21016.41,-97.53
21037.94,-97.53
21059.47,-93.93
21081.01,-96.43
21102.54,-99.72
21124.07,-97.37
21145.61,-99.09
21167.14,-101.51
21188.67,-101.98
21210.21,-105.97
21231.74,-104.72
21253.27,-100.03
21274.80,-100.58
21296.34,-102.45
21317.87,-98.08
21339.40,-99.79
21360.94,-100.42
21382.47,-98.15
21404.00,-103.16
21425.54,-99.95
21447.07,-95.26
21468.60,-98.94
21490.14,-101.83
21511.67,-95.89
21533.20,-98.00
21554.74,-105.89
21576.27,-101.90
21597.80,-100.97
21619.34,-103.78
21640.87,-98.08
21662.40,-98.70
21683.94,-103.00
21705.47,-97.76
21727.00,-98.23
21748.54,-103.55
21770.07,-99.48
21791.60,-97.29
21813.13,-102.69
21834.67,-97.45
21856.20,-96.04
21877.73,-102.61
21899.27,-96.90
21920.80,-95.58
21942.33,-101.83
21963.87,-99.48
21985.40,-97.61
22006.93,-102.14
22028.47,-101.51
22050.00,-100.03
