Frequency (Hz),Power (dB),44100.0000,2048,0,2.0000,0,L+R
0.00,-55.41
21.53,-50.56
43.07,-13.76
64.60,-7.19
86.13,-12.74
107.67,-49.08
129.20,-48.22
150.73,-52.44
172.27,-40.56
193.80,-33.06
215.33,-37.59
236.87,-63.22
258.40,-63.61
279.93,-66.43
301.46,-53.22
323.00,-44.63
344.53,-48.30
366.06,-69.63
387.60,-67.13
409.13,-70.02
430.66,-73.54
452.20,-65.02
473.73,-67.76
495.26,-78.15
516.80,-71.82
538.33,-73.46
559.86,-69.32
581.40,-58.77
602.93,-60.72
624.46,-76.43
646.00,-73.23
667.53,-74.55
689.06,-74.95
710.60,-63.46
732.13,-64.55
753.66,-78.38
775.20,-74.32
796.73,-74.79
818.26,-82.84
839.79,-74.32
861.33,-74.32
882.86,-83.93
904.39,-77.45
925.93,-77.21
947.46,-81.43
968.99,-68.22
990.53,-67.60
1012.06,-79.40
1033.59,-76.98
1055.13,-76.20
1076.66,-84.32
1098.19,-77.99
1119.73,-76.66
1141.26,-84.79
1162.79,-80.02
1184.33,-78.38
1205.86,-85.03
1227.39,-75.18
1248.93,-73.07
1270.46,-81.98
1291.99,-80.73
1313.53,-78.23
1335.06,-84.87
1356.59,-77.52
1378.13,-74.71
1399.66,-82.45
1421.19,-82.13
1442.72,-79.09
1464.26,-85.03
1485.79,-82.99
1507.32,-79.32
1528.86,-85.42
1550.39,-84.63
1571.92,-81.20
1593.46,-86.43
1614.99,-81.74
1636.52,-77.21
1658.06,-83.15
1679.59,-84.87
1701.12,-81.35
1722.66,-85.96
1744.19,-86.98
1765.72,-82.29
1787.26,-86.67
1808.79,-87.53
1830.32,-83.23
1851.86,-87.14
1873.39,-85.49
1894.92,-79.71
1916.46,-84.09
1937.99,-87.29
1959.52,-82.76
1981.05,-85.81
2002.59,-88.46
2024.12,-83.78
2045.65,-86.59
2067.19,-89.09
2088.72,-84.48
2110.25,-86.67
2131.79,-88.78
2153.32,-82.99
2174.85,-85.10
2196.39,-88.85
2217.92,-85.34
2239.45,-87.21
2260.99,-89.32
2282.52,-83.93
2304.05,-85.49
2325.59,-90.18
2347.12,-85.89
2368.65,-86.98
2390.19,-90.96
2411.72,-86.74
2433.25,-87.76
2454.79,-91.04
2476.32,-88.62
2497.85,-89.71
2519.38,-90.57
2540.92,-83.46
2562.45,-84.09
2583.98,-89.48
2605.52,-86.20
2627.05,-86.20
2648.58,-91.12
2670.12,-89.32
2691.65,-89.17
2713.18,-92.37
2734.72,-90.65
2756.25,-89.71
2777.78,-90.96
2799.32,-86.51
2820.85,-86.20
2842.38,-90.81
2863.92,-89.40
2885.45,-88.62
2906.98,-91.43
2928.52,-88.46
2950.05,-87.76
2971.58,-92.29
2993.12,-90.57
3014.65,-89.87
3036.18,-92.76
3057.71,-89.79
3079.25,-88.62
3100.78,-91.75
3122.31,-91.75
3143.85,-90.65
3165.38,-92.14
3186.91,-89.32
3208.45,-87.06
3229.98,-91.04
3251.51,-91.90
3273.05,-90.18
3294.58,-91.75
3316.11,-93.23
3337.65,-93.00
3359.18,-93.54
3380.71,-92.45
3402.25,-90.65
3423.78,-91.82
3445.31,-89.48
3466.85,-86.74
3488.38,-90.26
3509.91,-92.84
3531.45,-90.73
3552.98,-91.59
3574.51,-92.06
3596.04,-91.98
3617.58,-93.07
3639.11,-93.62
3660.64,-92.53
3682.18,-93.31
3703.71,-92.14
3725.24,-89.87
3746.78,-91.90
3768.31,-93.54
3789.84,-91.98
3811.38,-92.53
3832.91,-92.29
3854.44,-89.32
3875.98,-91.20
3897.51,-92.92
3919.04,-90.96
3940.58,-92.68
3962.11,-94.25
3983.64,-93.15
4005.18,-93.47
4026.71,-93.86
4048.24,-92.84
4069.78,-93.23
4091.31,-93.31
4112.84,-89.71
4134.38,-90.50
4155.91,-93.93
4177.44,-92.84
4198.97,-92.84
4220.51,-94.95
4242.04,-93.23
4263.57,-93.70
4285.11,-94.25
4306.64,-92.06
4328.17,-92.21
4349.71,-94.32
4371.24,-90.34
4392.77,-90.03
4414.31,-93.70
4435.84,-91.98
4457.37,-91.75
4478.91,-93.15
4500.44,-92.92
4521.97,-92.06
4543.51,-94.09
4565.04,-91.51
4586.57,-90.81
4608.11,-93.78
4629.64,-91.98
4651.17,-91.04
4672.71,-94.09
4694.24,-92.06
4715.77,-91.90
4737.30,-95.26
4758.84,-92.61
4780.37,-91.36
4801.90,-94.79
4823.44,-93.86
4844.97,-92.29
4866.50,-94.79
4888.04,-93.93
4909.57,-93.39
4931.10,-95.03
4952.64,-93.62
4974.17,-91.59
4995.70,-94.79
5017.24,-94.48
5038.77,-91.98
5060.30,-94.79
5081.84,-94.09
5103.37,-91.75
5124.90,-93.93
5146.44,-93.86
5167.97,-91.67
5189.50,-94.01
5211.04,-92.68
5232.57,-90.26
5254.10,-93.31
5275.63,-94.40
5297.17,-91.59
5318.70,-94.40
5340.23,-95.26
5361.77,-92.61
5383.30,-94.64
5404.83,-94.25
5426.37,-91.36
5447.90,-92.92
5469.43,-95.50
5490.97,-91.59
5512.50,-93.31
5534.03,-94.79
5555.57,-91.90
5577.10,-93.70
5598.63,-95.73
5620.17,-94.09
5641.70,-94.64
5663.23,-94.56
5684.77,-92.84
5706.30,-93.54
5727.83,-95.34
5749.37,-92.84
5770.90,-93.86
5792.43,-95.34
5813.96,-92.06
5835.50,-93.62
5857.03,-95.81
5878.56,-92.14
5900.10,-93.39
5921.63,-95.58
5943.16,-92.53
5964.70,-93.39
5986.23,-95.42
6007.76,-92.68
6029.30,-93.00
6050.83,-95.73
6072.36,-93.15
6093.90,-93.00
6115.43,-96.12
6136.96,-91.90
6158.50,-91.36
6180.03,-95.26
6201.56,-92.37
6223.10,-92.45
6244.63,-95.81
6266.16,-93.78
6287.70,-93.39
6309.23,-95.89
6330.76,-93.78
6352.29,-92.76
6373.83,-96.28
6395.36,-93.62
6416.89,-92.14
6438.43,-96.51
6459.96,-94.64
6481.49,-93.78
6503.03,-95.89
6524.56,-94.72
6546.09,-92.53
6567.63,-96.20
6589.16,-94.48
6610.69,-93.07
6632.23,-96.67
6653.76,-95.18
6675.29,-93.31
6696.83,-95.50
6718.36,-95.34
6739.89,-93.93
6761.43,-96.51
6782.96,-94.64
6804.49,-91.82
6826.03,-95.81
6847.56,-95.73
6869.09,-92.84
6890.63,-96.20
6912.16,-96.20
6933.69,-93.93
6955.22,-96.75
6976.76,-96.36
6998.29,-93.78
7019.82,-96.51
7041.36,-96.12
7062.89,-93.78
7084.42,-95.65
7105.96,-95.81
7127.49,-94.09
7149.02,-96.75
7170.56,-96.90
7192.09,-93.23
7213.62,-96.12
7235.16,-97.22
7256.69,-94.17
7278.22,-95.73
7299.76,-98.23
7321.29,-96.36
7342.82,-97.06
7364.36,-97.68
7385.89,-94.01
7407.42,-95.73
7428.96,-97.29
7450.49,-94.64
7472.02,-95.97
7493.55,-97.92
7515.09,-96.75
7536.62,-97.84
7558.15,-98.62
7579.69,-94.56
7601.22,-95.89
7622.75,-98.94
7644.29,-95.65
7665.82,-96.12
7687.35,-97.92
7708.89,-96.90
7730.42,-96.59
7751.95,-97.92
7773.49,-97.37
7795.02,-97.29
7816.55,-98.08
7838.09,-96.20
7859.62,-96.36
7881.15,-98.47
7902.69,-97.29
7924.22,-97.37
7945.75,-97.76
7967.29,-96.12
7988.82,-95.42
8010.35,-98.31
8031.88,-96.12
8053.42,-95.42
8074.95,-98.54
8096.48,-96.12
8118.02,-95.58
8139.55,-98.08
8161.08,-97.45
8182.62,-97.22
8204.15,-99.17
8225.68,-98.70
8247.22,-97.45
8268.75,-98.08
8290.28,-97.53
8311.82,-97.84
8333.35,-98.78
8354.88,-97.29
8376.42,-96.43
8397.95,-97.76
8419.48,-97.76
8441.02,-96.90
8462.55,-97.92
8484.08,-97.68
8505.62,-97.29
8527.15,-98.00
8548.68,-97.68
8570.21,-95.65
8591.75,-97.92
8613.28,-97.84
8634.81,-96.36
8656.35,-97.84
8677.88,-98.47
8699.41,-97.76
8720.95,-99.17
8742.48,-98.31
8764.01,-96.67
8785.55,-98.15
8807.08,-97.92
8828.61,-95.81
8850.15,-98.00
8871.68,-99.09
8893.21,-98.78
8914.75,-99.33
8936.28,-99.95
8957.81,-98.86
8979.35,-99.40
9000.88,-99.17
9022.41,-98.70
9043.95,-99.01
9065.48,-100.03
9087.01,-99.87
9108.54,-99.17
9130.08,-99.33
9151.61,-98.62
9173.14,-99.01
9194.68,-98.86
9216.21,-97.76
9237.74,-98.08
9259.28,-100.65
9280.81,-100.81
9302.34,-100.11
9323.88,-98.78
9345.41,-98.39
9366.94,-98.78
9388.48,-99.64
9410.01,-98.86
9431.54,-99.01
9453.08,-98.78
9474.61,-98.78
9496.14,-99.79
9517.68,-101.05
9539.21,-99.64
9560.74,-100.03
9582.28,-100.65
9603.81,-99.56
9625.34,-99.56
9646.88,-100.34
9668.41,-100.03
9689.94,-99.95
9711.47,-99.56
9733.01,-98.70
9754.54,-99.33
9776.07,-100.11
9797.61,-98.94
9819.14,-99.40
9840.67,-101.28
9862.21,-99.95
9883.74,-99.25
9905.27,-100.26
9926.81,-99.87
9948.34,-99.48
9969.87,-100.26
9991.41,-99.79
10012.94,-100.03
10034.47,-100.58
10056.01,-100.03
10077.54,-99.17
10099.07,-100.65
10120.61,-100.42
10142.14,-100.11
10163.67,-100.97
10185.21,-100.19
10206.74,-99.79
10228.27,-99.09
10249.80,-99.56
10271.34,-100.58
10292.87,-100.26
10314.40,-100.34
10335.94,-100.19
10357.47,-100.81
10379.00,-99.64
10400.54,-98.47
10422.07,-100.58
10443.60,-100.42
10465.14,-100.11
10486.67,-100.65
10508.20,-100.73
10529.74,-100.81
10551.27,-101.44
10572.80,-100.58
10594.34,-100.19
10615.87,-100.81
10637.40,-102.14
10658.94,-100.81
10680.47,-100.58
10702.00,-99.95
10723.54,-99.48
10745.07,-99.95
10766.60,-99.87
10788.13,-99.72
10809.67,-101.90
10831.20,-101.05
10852.73,-100.81
10874.27,-100.34
10895.80,-100.58
10917.33,-99.95
10938.87,-100.89
10960.40,-101.67
10981.93,-100.97
11003.47,-101.59
11025.00,-100.65
11046.53,-100.58
11068.07,-101.20
11089.60,-100.81
11111.13,-100.65
11132.67,-101.20
11154.20,-101.98
11175.73,-101.44
11197.27,-101.75
11218.80,-101.67
11240.33,-99.87
11261.87,-100.73
11283.40,-101.51
11304.93,-101.75
11326.46,-101.36
11348.00,-102.53
11369.53,-101.90
11391.06,-101.51
11412.60,-101.98
11434.13,-100.03
11455.66,-99.56
11477.20,-101.36
11498.73,-101.67
11520.26,-101.83
11541.80,-101.67
11563.33,-101.90
11584.86,-102.53
11606.40,-102.53
11627.93,-102.53
11649.46,-102.30
11671.00,-102.69
11692.53,-100.89
11714.06,-101.36
11735.60,-102.45
11757.13,-101.83
11778.66,-101.36
11800.20,-101.98
11821.73,-101.75
11843.26,-102.76
11864.79,-104.17
11886.33,-102.45
11907.86,-102.06
11929.39,-102.06
11950.93,-102.06
11972.46,-100.81
11993.99,-101.20
12015.53,-100.58
12037.06,-99.72
12058.59,-101.20
12080.13,-102.30
12101.66,-102.30
12123.19,-102.84
12144.73,-102.45
12166.26,-101.05
12187.79,-101.75
12209.33,-102.14
12230.86,-102.53
12252.39,-102.53
12273.93,-101.36
12295.46,-100.03
12316.99,-101.67
12338.53,-102.06
12360.06,-101.28
12381.59,-101.59
12403.13,-101.20
12424.66,-100.58
12446.19,-101.67
12467.72,-102.69
12489.26,-102.84
12510.79,-102.92
12532.32,-103.78
12553.86,-102.22
12575.39,-102.61
12596.92,-103.00
12618.46,-102.61
12639.99,-102.37
12661.52,-102.45
12683.06,-101.36
12704.59,-101.59
12726.12,-102.53
12747.66,-101.98
12769.19,-102.76
12790.72,-103.23
12812.26,-101.98
12833.79,-101.98
12855.32,-101.90
12876.86,-101.28
12898.39,-101.36
12919.92,-101.90
12941.46,-102.30
12962.99,-102.76
12984.52,-102.61
13006.05,-101.51
13027.59,-102.53
13049.12,-104.01
13070.65,-103.08
13092.19,-103.16
13113.72,-103.00
13135.25,-103.55
13156.79,-104.09
13178.32,-103.78
13199.85,-102.69
13221.39,-102.69
13242.92,-103.31
13264.45,-103.86
13285.99,-104.25
13307.52,-104.48
13329.05,-103.62
13350.59,-102.37
13372.12,-102.61
13393.65,-102.22
13415.19,-102.14
13436.72,-102.76
13458.25,-103.00
13479.79,-102.84
13501.32,-103.70
13522.85,-102.37
13544.38,-101.51
13565.92,-103.39
13587.45,-104.80
13608.98,-103.55
13630.52,-103.47
13652.05,-103.23
13673.58,-101.98
13695.12,-103.55
13716.65,-104.17
13738.18,-103.86
13759.72,-105.26
13781.25,-103.78
13802.78,-102.45
13824.32,-103.78
13845.85,-103.62
13867.38,-102.30
13888.92,-103.39
13910.45,-102.92
13931.98,-102.92
13953.52,-105.26
13975.05,-104.64
13996.58,-104.17
14018.12,-104.80
14039.65,-104.09
14061.18,-103.16
14082.71,-104.56
14104.25,-104.09
14125.78,-102.53
14147.31,-104.48
14168.85,-104.41
14190.38,-103.78
14211.91,-104.09
14233.45,-104.80
14254.98,-104.41
14276.51,-104.01
14298.05,-104.33
14319.58,-104.01
14341.11,-103.55
14362.65,-104.25
14384.18,-104.25
14405.71,-104.17
14427.25,-103.31
14448.78,-103.47
14470.31,-103.55
14491.85,-104.01
14513.38,-104.09
14534.91,-103.47
14556.45,-104.64
14577.98,-102.61
14599.51,-103.86
14621.04,-104.56
14642.58,-102.92
14664.11,-103.55
14685.64,-104.41
14707.18,-103.31
14728.71,-103.31
14750.24,-103.47
14771.78,-103.39
14793.31,-103.62
14814.84,-105.11
14836.38,-104.17
14857.91,-104.01
14879.44,-104.48
14900.98,-103.62
14922.51,-104.01
14944.04,-104.87
14965.58,-104.09
14987.11,-103.70
15008.64,-104.64
15030.18,-104.41
15051.71,-104.41
15073.24,-104.72
15094.78,-103.62
15116.31,-104.17
15137.84,-104.41
15159.38,-103.70
15180.91,-103.86
15202.44,-105.34
15223.97,-106.28
15245.51,-105.26
15267.04,-104.25
15288.57,-104.87
15310.11,-105.50
15331.64,-106.91
15353.17,-104.87
15374.71,-103.62
15396.24,-105.26
15417.77,-104.87
15439.31,-103.86
15460.84,-104.87
15482.37,-104.56
15503.91,-103.78
15525.44,-104.17
15546.97,-105.89
15568.51,-104.87
15590.04,-105.26
15611.57,-104.64
15633.11,-103.16
15654.64,-105.03
15676.17,-105.42
15697.71,-104.64
15719.24,-105.66
15740.77,-105.81
15762.30,-103.47
15783.84,-106.05
15805.37,-105.66
15826.90,-104.25
15848.44,-104.64
15869.97,-105.34
15891.50,-104.87
15913.04,-105.58
15934.57,-104.80
15956.10,-103.47
15977.64,-105.34
15999.17,-105.34
16020.70,-102.84
16042.24,-104.48
16063.77,-106.67
16085.30,-104.56
16106.84,-104.95
16128.37,-105.81
16149.90,-105.11
16171.44,-104.87
16192.97,-106.20
16214.50,-104.56
16236.04,-105.42
16257.57,-106.28
16279.10,-104.95
16300.63,-105.89
16322.17,-106.44
16343.70,-104.87
16365.23,-105.19
16386.77,-106.36
16408.30,-103.70
16429.83,-103.86
16451.37,-106.52
16472.90,-102.69
16494.43,-103.55
16515.97,-106.44
16537.50,-104.87
16559.03,-104.80
16580.57,-106.20
16602.10,-105.89
16623.63,-104.41
16645.17,-105.58
16666.70,-104.72
16688.23,-103.94
16709.77,-106.05
16731.30,-104.56
16752.83,-103.70
16774.37,-106.44
16795.90,-106.52
16817.43,-105.66
16838.96,-106.75
16860.50,-105.58
16882.03,-105.58
16903.56,-107.06
16925.10,-106.52
16946.63,-105.66
16968.16,-106.05
16989.70,-106.05
17011.23,-107.14
17032.76,-107.53
17054.30,-105.66
17075.83,-105.89
17097.36,-107.06
17118.90,-106.91
17140.43,-106.67
17161.96,-107.14
17183.50,-105.58
17205.03,-104.01
17226.56,-105.50
17248.10,-106.75
17269.63,-107.14
17291.16,-107.77
17312.70,-106.91
17334.23,-105.11
17355.76,-106.83
17377.29,-105.73
17398.83,-104.25
17420.36,-106.20
17441.89,-106.28
17463.43,-104.95
17484.96,-106.05
17506.49,-106.83
17528.03,-106.52
17549.56,-106.98
17571.09,-106.98
17592.63,-105.50
17614.16,-106.91
17635.69,-106.67
17657.23,-104.87
17678.76,-106.83
17700.29,-107.06
17721.83,-104.95
17743.36,-106.98
17764.89,-108.63
17786.43,-106.44
17807.96,-106.75
17829.49,-108.55
17851.03,-106.91
17872.56,-107.61
17894.09,-107.22
17915.63,-104.41
17937.16,-105.34
17958.69,-107.14
17980.22,-105.11
18001.76,-105.97
18023.29,-107.37
18044.82,-105.81
18066.36,-106.44
18087.89,-107.69
18109.42,-105.19
18130.96,-105.58
18152.49,-107.45
18174.02,-106.05
18195.56,-106.44
18217.09,-107.69
18238.62,-106.12
18260.16,-106.12
18281.69,-107.84
18303.22,-104.95
18324.76,-104.80
18346.29,-107.77
18367.82,-106.91
18389.36,-106.28
18410.89,-108.00
18432.42,-106.98
18453.96,-106.59
18475.49,-108.31
18497.02,-107.37
18518.55,-107.06
18540.09,-108.47
18561.62,-105.26
18583.15,-104.87
18604.69,-107.45
18626.22,-106.67
18647.75,-105.97
18669.29,-107.92
18690.82,-105.34
18712.35,-104.09
18733.89,-107.06
18755.42,-106.36
18776.95,-105.50
18798.49,-108.08
18820.02,-107.37
18841.55,-107.69
18863.09,-109.17
18884.62,-108.08
18906.15,-105.89
18927.69,-107.69
18949.22,-107.92
18970.75,-106.75
18992.29,-108.08
19013.82,-107.45
19035.35,-106.83
19056.88,-108.31
19078.42,-107.45
19099.95,-105.97
19121.48,-107.84
19143.02,-108.08
19164.55,-106.44
19186.08,-107.84
19207.62,-106.67
19229.15,-104.17
19250.68,-107.22
19272.22,-108.78
19293.75,-105.97
19315.28,-107.92
19336.82,-108.47
19358.35,-106.98
19379.88,-108.70
19401.42,-107.69
19422.95,-104.17
19444.48,-106.44
19466.02,-109.17
19487.55,-106.98
19509.08,-108.23
19530.62,-107.69
19552.15,-104.87
19573.68,-106.59
19595.21,-109.25
19616.75,-108.55
19638.28,-108.78
19659.81,-109.17
19681.35,-108.31
19702.88,-110.19
19724.41,-110.66
19745.95,-108.08
19767.48,-108.86
19789.01,-110.11
19810.55,-108.16
19832.08,-108.39
19853.61,-110.42
19875.15,-107.77
19896.68,-107.53
19918.21,-110.19
19939.75,-109.09
19961.28,-108.86
19982.81,-109.80
20004.35,-107.69
20025.88,-107.53
20047.41,-110.11
20068.95,-108.31
20090.48,-108.86
20112.01,-111.05
20133.54,-106.12
20155.08,-105.73
20176.61,-110.11
20198.14,-110.58
20219.68,-110.11
20241.21,-111.13
20262.74,-110.89
20284.28,-110.42
20305.81,-112.53
20327.34,-108.55
20348.88,-107.06
20370.41,-110.89
20391.94,-109.80
20413.48,-108.47
20435.01,-111.59
20456.54,-110.27
20478.08,-110.19
20499.61,-112.14
20521.14,-109.56
20542.68,-107.30
20564.21,-110.97
20585.74,-110.74
20607.28,-108.78
20628.81,-111.52
20650.34,-110.19
20671.88,-108.70
20693.41,-112.61
20714.94,-110.81
20736.47,-108.86
20758.01,-113.00
20779.54,-111.28
20801.07,-108.70
20822.61,-112.38
20844.14,-113.16
20865.67,-109.33
20887.21,-112.22
20908.74,-112.06
20930.27,-109.09
20951.81,-112.69
20973.34,-113.08
20994.87,-110.97
21016.41,-112.53
21037.94,-112.53
21059.47,-109.80
21081.01,-112.77
21102.54,-112.22
21124.07,-108.00
21145.61,-110.97
21167.14,-114.64
21188.67,-110.66
21210.21,-112.45
21231.74,-114.33
21253.27,-111.28
21274.80,-113.31
21296.34,-113.00
21317.87,-107.30
21339.40,-109.48
21360.94,-114.33
21382.47,-108.70
21404.00,-110.89
21425.54,-115.03
21447.07,-108.70
21468.60,-110.74
21490.14,-115.19
21511.67,-110.74
21533.20,-111.99
21554.74,-115.35
21576.27,-110.97
21597.80,-111.28
21619.34,-115.66
21640.87,-108.08
21662.40,-109.02
21683.94,-115.35
21705.47,-111.13
21727.00,-111.59
21748.54,-114.56
21770.07,-108.31
21791.60,-108.63
21813.13,-115.27
21834.67,-110.97
21856.20,-110.27
21877.73,-114.10
21899.27,-109.95
21920.80,-108.08
21942.33,-113.24
21963.87,-115.66
21985.40,-113.31
22006.93,-116.75
22028.47,-114.88
22050.00,-112.77
