Frequency (Hz),Power (dB),44100.0000,2048,0,2.0000,0,L+R
0.00,-46.42
21.53,-52.52
43.07,-75.02
64.60,-69.32
86.13,-40.09
107.67,-33.22
129.20,-38.45
150.73,-68.46
172.27,-69.71
193.80,-46.58
215.33,-38.37
236.87,-42.28
258.40,-65.33
279.93,-76.04
301.46,-70.88
323.00,-61.97
344.53,-64.86
366.06,-82.29
387.60,-81.67
409.13,-63.30
430.66,-53.38
452.20,-55.57
473.73,-72.60
495.26,-86.20
516.80,-80.81
538.33,-72.13
559.86,-74.40
581.40,-88.15
602.93,-88.85
624.46,-75.57
646.00,-63.93
667.53,-64.55
689.06,-78.62
710.60,-91.20
732.13,-88.15
753.66,-79.95
775.20,-80.42
796.73,-90.96
818.26,-95.26
839.79,-83.31
861.33,-72.13
882.86,-71.82
904.39,-82.45
925.93,-94.72
947.46,-91.28
968.99,-82.21
990.53,-80.96
1012.06,-89.87
1033.59,-98.62
1055.13,-88.23
1076.66,-76.59
1098.19,-74.71
1119.73,-83.54
1141.26,-96.98
1162.79,-94.09
1184.33,-84.95
1205.86,-83.85
1227.39,-90.96
1248.93,-98.94
1270.46,-91.67
1291.99,-79.56
1313.53,-76.66
1335.06,-83.15
1356.59,-99.01
1378.13,-95.65
1399.66,-85.89
1421.19,-83.70
1442.72,-89.17
1464.26,-100.81
1485.79,-94.17
1507.32,-84.24
1528.86,-81.98
1550.39,-87.06
1571.92,-99.72
1593.46,-96.83
1614.99,-87.68
1636.52,-85.10
1658.06,-89.32
1679.59,-101.90
1701.12,-96.83
1722.66,-87.21
1744.19,-83.78
1765.72,-86.74
1787.26,-97.53
1808.79,-100.58
1830.32,-90.73
1851.86,-87.14
1873.39,-90.34
1894.92,-99.87
1916.46,-98.70
1937.99,-89.56
1959.52,-86.28
1981.05,-88.62
2002.59,-97.92
2024.12,-102.22
2045.65,-92.29
2067.19,-87.45
2088.72,-88.54
2110.25,-96.12
2131.79,-101.67
2153.32,-91.75
2174.85,-87.29
2196.39,-88.78
2217.92,-96.04
2239.45,-99.72
2260.99,-88.54
2282.52,-84.79
2304.05,-87.29
2325.59,-93.86
2347.12,-102.06
2368.65,-94.95
2390.19,-89.87
2411.72,-89.40
2433.25,-94.48
2454.79,-99.17
2476.32,-89.56
2497.85,-85.18
2519.38,-86.67
2540.92,-91.51
2562.45,-100.50
2583.98,-95.65
2605.52,-91.82
2627.05,-90.57
2648.58,-93.93
2670.12,-99.95
2691.65,-91.98
2713.18,-87.45
2734.72,-86.51
2756.25,-88.85
2777.78,-97.53
2799.32,-98.00
2820.85,-93.78
2842.38,-92.29
2863.92,-95.18
2885.45,-99.48
2906.98,-92.29
2928.52,-87.53
2950.05,-86.43
2971.58,-89.32
2993.12,-96.75
3014.65,-98.47
3036.18,-93.70
3057.71,-93.15
3079.25,-93.86
3100.78,-98.00
3122.31,-93.54
3143.85,-89.87
3165.38,-89.64
3186.91,-90.26
3208.45,-95.18
3229.98,-100.26
3251.51,-94.87
3273.05,-91.75
3294.58,-92.14
3316.11,-95.26
3337.65,-96.12
3359.18,-93.23
3380.71,-92.29
3402.25,-93.70
3423.78,-97.92
3445.31,-100.34
3466.85,-95.26
3488.38,-92.92
3509.91,-92.61
3531.45,-96.51
3552.98,-97.92
3574.51,-95.26
3596.04,-94.48
3617.58,-94.25
3639.11,-96.98
3660.64,-99.87
3682.18,-97.06
3703.71,-93.54
3725.24,-92.61
3746.78,-95.50
3768.31,-98.54
3789.84,-98.23
3811.38,-97.84
3832.91,-98.39
3854.44,-99.40
3875.98,-99.48
3897.51,-96.36
3919.04,-93.86
3940.58,-94.40
3962.11,-96.28
3983.64,-99.48
4005.18,-100.11
4026.71,-98.54
4048.24,-98.70
4069.78,-100.42
4091.31,-103.39
4112.84,-99.40
4134.38,-95.50
4155.91,-94.87
4177.44,-96.51
4198.97,-100.73
4220.51,-102.30
4242.04,-101.36
4263.57,-100.97
4285.11,-100.34
4306.64,-102.53
4328.17,-101.20
4349.71,-97.68
4371.24,-96.83
4392.77,-97.68
4414.31,-100.58
4435.84,-101.67
4457.37,-101.28
4478.91,-100.81
4500.44,-101.36
4521.97,-103.31
4543.51,-102.76
4565.04,-98.31
4586.57,-97.06
4608.11,-98.39
4629.64,-101.05
4651.17,-103.47
4672.71,-103.55
4694.24,-103.23
4715.77,-103.08
4737.30,-103.70
4758.84,-102.37
4780.37,-100.73
4801.90,-98.94
4823.44,-98.39
4844.97,-100.81
4866.50,-102.84
4888.04,-102.69
4909.57,-103.70
4931.10,-104.09
4952.64,-103.70
4974.17,-101.44
4995.70,-100.89
5017.24,-100.26
5038.77,-99.95
5060.30,-101.12
5081.84,-103.47
5103.37,-105.26
5124.90,-105.03
5146.44,-104.25
5167.97,-103.70
5189.50,-103.31
5211.04,-102.14
5232.57,-101.20
5254.10,-100.89
5275.63,-101.28
5297.17,-103.86
5318.70,-105.81
5340.23,-105.26
5361.77,-104.64
5383.30,-103.94
5404.83,-103.08
5426.37,-101.98
5447.90,-101.28
5469.43,-100.89
5490.97,-101.67
5512.50,-103.70
5534.03,-106.28
5555.57,-106.83
5577.10,-106.20
5598.63,-104.95
5620.17,-103.23
5641.70,-103.55
5663.23,-103.23
5684.77,-102.45
5706.30,-102.76
5727.83,-104.64
5749.37,-106.67
5770.90,-109.48
5792.43,-108.23
5813.96,-106.44
5835.50,-103.55
5857.03,-103.31
5878.56,-103.23
5900.10,-102.69
5921.63,-102.69
5943.16,-104.01
5964.70,-107.37
5986.23,-110.19
6007.76,-109.25
6029.30,-107.37
6050.83,-105.19
6072.36,-104.56
6093.90,-105.50
6115.43,-105.03
6136.96,-103.94
6158.50,-105.50
6180.03,-108.31
6201.56,-110.50
6223.10,-110.11
6244.63,-108.70
6266.16,-105.58
6287.70,-104.48
6309.23,-104.25
6330.76,-104.01
6352.29,-103.86
6373.83,-104.41
6395.36,-107.37
6416.89,-110.50
6438.43,-110.74
6459.96,-109.72
6481.49,-108.31
6503.03,-106.75
6524.56,-106.20
6546.09,-106.52
6567.63,-106.12
6589.16,-106.36
6610.69,-106.91
6632.23,-110.03
6653.76,-111.99
6675.29,-110.50
6696.83,-108.16
6718.36,-106.59
6739.89,-105.73
6761.43,-105.58
6782.96,-105.73
6804.49,-105.34
6826.03,-106.91
6847.56,-110.97
6869.09,-111.91
6890.63,-110.42
6912.16,-109.09
6933.69,-107.84
6955.22,-107.84
6976.76,-108.39
6998.29,-108.31
7019.82,-107.69
7041.36,-108.00
7062.89,-110.19
7084.42,-111.99
7105.96,-111.36
7127.49,-110.27
7149.02,-108.78
7170.56,-107.45
7192.09,-107.14
7213.62,-108.86
7235.16,-107.92
7256.69,-107.77
7278.22,-108.94
7299.76,-111.83
7321.29,-111.28
7342.82,-110.58
7364.36,-109.48
7385.89,-109.56
7407.42,-109.88
7428.96,-109.02
7450.49,-108.39
7472.02,-108.86
7493.55,-110.34
7515.09,-111.75
7536.62,-112.30
7558.15,-110.66
7579.69,-109.02
7601.22,-109.56
7622.75,-110.42
7644.29,-109.95
7665.82,-108.70
7687.35,-108.16
7708.89,-109.72
7730.42,-112.06
7751.95,-112.38
7773.49,-111.52
7795.02,-109.72
7816.55,-108.63
7838.09,-109.25
7859.62,-109.72
7881.15,-109.88
7902.69,-109.64
7924.22,-110.19
7945.75,-111.44
7967.29,-112.53
7988.82,-112.61
8010.35,-110.89
8031.88,-110.19
8053.42,-110.50
8074.95,-110.66
8096.48,-109.95
8118.02,-109.33
8139.55,-110.66
8161.08,-112.77
8182.62,-112.22
8204.15,-112.22
8225.68,-111.83
8247.22,-110.74
8268.75,-110.89
8290.28,-111.05
8311.82,-110.58
8333.35,-110.50
8354.88,-111.20
8376.42,-112.38
8397.95,-112.84
8419.48,-112.30
8441.02,-111.99
8462.55,-111.52
8484.08,-111.52
8505.62,-111.59
8527.15,-110.97
8548.68,-110.42
8570.21,-111.05
8591.75,-112.61
8613.28,-113.70
8634.81,-113.78
8656.35,-113.31
8677.88,-112.61
8699.41,-112.22
8720.95,-112.06
8742.48,-112.06
8764.01,-111.83
8785.55,-111.75
8807.08,-111.91
8828.61,-114.17
8850.15,-113.94
8871.68,-112.84
8893.21,-112.61
8914.75,-113.00
8936.28,-113.24
8957.81,-112.77
8979.35,-111.83
9000.88,-111.52
9022.41,-113.00
9043.95,-113.63
9065.48,-113.47
9087.01,-113.63
9108.54,-113.55
9130.08,-113.24
9151.61,-113.16
9173.14,-113.08
9194.68,-112.38
9216.21,-111.75
9237.74,-112.69
9259.28,-113.86
9280.81,-114.80
9302.34,-114.49
9323.88,-113.78
9345.41,-113.55
9366.94,-114.25
9388.48,-113.86
9410.01,-112.92
9431.54,-112.84
9453.08,-113.63
9474.61,-114.33
9496.14,-115.11
9517.68,-114.25
9539.21,-113.55
9560.74,-113.78
9582.28,-114.72
9603.81,-113.86
9625.34,-113.24
9646.88,-112.53
9668.41,-112.84
9689.94,-114.49
9711.47,-115.03
9733.01,-115.11
9754.54,-115.42
9776.07,-115.74
9797.61,-115.03
9819.14,-114.88
9840.67,-114.25
9862.21,-112.77
9883.74,-112.53
9905.27,-114.17
9926.81,-115.50
9948.34,-115.35
9969.87,-115.03
9991.41,-115.27
10012.94,-115.35
10034.47,-115.58
10056.01,-114.88
10077.54,-113.94
10099.07,-114.25
10120.61,-115.74
10142.14,-116.67
10163.67,-116.36
10185.21,-115.97
10206.74,-115.89
10228.27,-115.66
10249.80,-115.27
10271.34,-115.11
10292.87,-115.11
10314.40,-114.17
10335.94,-115.03
10357.47,-115.74
10379.00,-115.74
10400.54,-116.28
10422.07,-115.97
10443.60,-115.19
10465.14,-114.56
10486.67,-114.72
10508.20,-115.81
10529.74,-115.66
10551.27,-116.52
10572.80,-115.89
10594.34,-116.28
10615.87,-116.75
10637.40,-115.97
10658.94,-115.50
10680.47,-116.05
10702.00,-116.21
10723.54,-115.66
10745.07,-115.35
10766.60,-117.22
10788.13,-117.61
10809.67,-116.52
10831.20,-116.75
10852.73,-116.52
10874.27,-116.28
10895.80,-116.28
10917.33,-116.28
10938.87,-116.60
10960.40,-117.06
10981.93,-116.99
11003.47,-116.91
11025.00,-116.91
11046.53,-116.52
11068.07,-116.13
11089.60,-116.60
11111.13,-116.60
11132.67,-116.83
11154.20,-116.99
11175.73,-117.22
11197.27,-116.99
11218.80,-117.61
11240.33,-117.77
11261.87,-117.30
11283.40,-117.38
11304.93,-117.38
11326.46,-116.99
11348.00,-117.46
11369.53,-117.53
11391.06,-117.14
11412.60,-117.46
11434.13,-118.32
11455.66,-117.53
11477.20,-117.61
11498.73,-117.30
11520.26,-116.60
11541.80,-117.30
11563.33,-117.22
11584.86,-117.61
11606.40,-117.14
11627.93,-117.77
11649.46,-117.06
11671.00,-116.83
11692.53,-116.52
11714.06,-117.53
11735.60,-118.16
11757.13,-118.39
11778.66,-118.47
11800.20,-118.39
11821.73,-118.08
11843.26,-118.24
11864.79,-117.53
11886.33,-117.61
11907.86,-117.46
11929.39,-117.22
11950.93,-117.85
11972.46,-118.00
11993.99,-118.47
12015.53,-119.25
12037.06,-117.92
12058.59,-117.77
12080.13,-117.69
12101.66,-117.61
12123.19,-117.38
12144.73,-117.53
12166.26,-118.00
12187.79,-118.47
12209.33,-119.72
12230.86,-119.57
12252.39,-118.55
12273.93,-119.02
12295.46,-119.10
12316.99,-119.02
12338.53,-119.49
12360.06,-118.32
12381.59,-118.78
12403.13,-118.78
12424.66,-119.17
12446.19,-118.86
12467.72,-118.94
12489.26,-119.25
12510.79,-119.33
12532.32,-118.71
12553.86,-118.39
12575.39,-118.94
12596.92,-118.86
12618.46,-119.49
12639.99,-119.80
12661.52,-119.25
12683.06,-118.78
12704.59,-119.10
12726.12,-118.94
12747.66,-119.10
12769.19,-118.94
12790.72,-119.72
12812.26,-120.74
12833.79,-120.66
12855.32,-121.21
12876.86,-120.42
12898.39,-119.57
12919.92,-119.49
12941.46,-119.49
12962.99,-118.78
12984.52,-118.94
13006.05,-119.57
13027.59,-120.03
13049.12,-120.27
13070.65,-120.42
13092.19,-119.64
13113.72,-119.88
13135.25,-120.66
13156.79,-120.58
13178.32,-119.96
13199.85,-119.33
13221.39,-120.50
13242.92,-121.21
13264.45,-120.97
13285.99,-121.75
13307.52,-121.28
13329.05,-121.13
13350.59,-121.44
13372.12,-121.21
13393.65,-121.13
13415.19,-120.97
13436.72,-120.89
13458.25,-120.74
13479.79,-121.75
13501.32,-121.91
13522.85,-121.91
13544.38,-122.14
13565.92,-122.14
13587.45,-121.60
13608.98,-120.89
13630.52,-121.36
13652.05,-121.75
13673.58,-121.13
13695.12,-121.44
13716.65,-121.68
13738.18,-121.91
13759.72,-122.07
13781.25,-121.36
13802.78,-121.36
13824.32,-121.21
13845.85,-121.60
13867.38,-122.14
13888.92,-121.99
13910.45,-121.68
13931.98,-122.30
13953.52,-122.46
13975.05,-122.30
13996.58,-122.61
14018.12,-122.46
14039.65,-123.24
14061.18,-123.39
14082.71,-121.99
14104.25,-122.22
14125.78,-122.61
14147.31,-122.93
14168.85,-122.07
14190.38,-121.91
14211.91,-122.14
14233.45,-122.07
14254.98,-122.61
14276.51,-122.53
14298.05,-122.61
14319.58,-122.53
14341.11,-122.93
14362.65,-122.07
14384.18,-122.93
14405.71,-123.32
14427.25,-123.32
14448.78,-123.94
14470.31,-123.39
14491.85,-123.39
14513.38,-123.24
14534.91,-122.85
14556.45,-123.39
14577.98,-123.47
14599.51,-122.61
14621.04,-122.69
14642.58,-123.08
14664.11,-123.63
14685.64,-123.55
14707.18,-123.32
14728.71,-123.63
14750.24,-124.18
14771.78,-123.79
14793.31,-122.46
14814.84,-122.53
14836.38,-123.16
14857.91,-123.32
14879.44,-123.79
14900.98,-123.94
14922.51,-123.79
14944.04,-124.18
14965.58,-124.10
14987.11,-123.71
15008.64,-123.71
15030.18,-123.32
15051.71,-123.08
15073.24,-122.77
15094.78,-124.02
15116.31,-124.57
15137.84,-124.18
15159.38,-124.10
15180.91,-123.24
15202.44,-123.71
15223.97,-123.79
15245.51,-123.63
15267.04,-123.16
15288.57,-123.00
15310.11,-124.18
15331.64,-124.49
15353.17,-124.57
15374.71,-124.02
15396.24,-124.10
15417.77,-124.88
15439.31,-124.33
15460.84,-124.57
15482.37,-123.71
15503.91,-124.10
15525.44,-124.41
15546.97,-124.41
15568.51,-123.94
15590.04,-124.41
15611.57,-124.10
15633.11,-124.25
15654.64,-124.57
15676.17,-125.19
15697.71,-125.04
15719.24,-124.72
15740.77,-124.41
15762.30,-124.49
15783.84,-124.02
15805.37,-124.96
15826.90,-125.43
15848.44,-124.96
15869.97,-125.19
15891.50,-124.64
15913.04,-124.80
15934.57,-125.35
15956.10,-124.80
15977.64,-125.19
15999.17,-125.50
16020.70,-125.74
16042.24,-125.11
16063.77,-124.64
16085.30,-124.96
16106.84,-125.50
16128.37,-125.43
16149.90,-124.96
16171.44,-124.80
16192.97,-125.27
16214.50,-125.35
16236.04,-125.11
16257.57,-125.27
16279.10,-125.04
16300.63,-124.64
16322.17,-125.43
16343.70,-125.43
16365.23,-125.58
16386.77,-125.19
16408.30,-125.27
16429.83,-125.27
16451.37,-125.19
16472.90,-125.89
16494.43,-125.58
16515.97,-125.82
16537.50,-125.58
16559.03,-125.04
16580.57,-125.19
16602.10,-125.19
16623.63,-125.43
16645.17,-124.80
16666.70,-124.96
16688.23,-124.88
16709.77,-125.35
16731.30,-125.50
16752.83,-125.35
16774.37,-125.35
16795.90,-125.82
16817.43,-126.29
16838.96,-125.89
16860.50,-125.89
16882.03,-125.66
16903.56,-125.58
16925.10,-125.50
16946.63,-126.29
16968.16,-126.13
16989.70,-125.35
17011.23,-125.35
17032.76,-125.35
17054.30,-124.88
17075.83,-125.58
17097.36,-126.21
17118.90,-125.50
17140.43,-125.35
17161.96,-125.58
17183.50,-126.13
17205.03,-125.89
17226.56,-125.82
17248.10,-126.21
17269.63,-126.21
17291.16,-126.21
17312.70,-126.60
17334.23,-125.89
17355.76,-126.21
17377.29,-126.99
17398.83,-126.83
17420.36,-126.52
17441.89,-126.36
17463.43,-126.05
17484.96,-125.82
17506.49,-126.60
17528.03,-127.22
17549.56,-126.60
17571.09,-126.60
17592.63,-126.13
17614.16,-126.29
17635.69,-127.46
17657.23,-126.75
17678.76,-126.68
17700.29,-127.07
17721.83,-126.75
17743.36,-126.60
17764.89,-126.13
17786.43,-126.44
17807.96,-127.07
17829.49,-126.60
17851.03,-127.15
17872.56,-126.99
17894.09,-126.83
17915.63,-126.68
17937.16,-126.29
17958.69,-126.36
17980.22,-126.60
18001.76,-126.44
18023.29,-126.44
18044.82,-125.97
18066.36,-126.29
18087.89,-126.83
18109.42,-126.91
18130.96,-126.75
18152.49,-126.91
18174.02,-127.15
18195.56,-126.99
18217.09,-127.46
18238.62,-126.83
18260.16,-126.68
18281.69,-126.60
18303.22,-126.68
18324.76,-126.60
18346.29,-126.52
18367.82,-127.15
18389.36,-127.22
18410.89,-127.22
18432.42,-126.75
18453.96,-126.91
18475.49,-126.52
18497.02,-127.38
18518.55,-126.68
18540.09,-126.99
18561.62,-127.38
18583.15,-126.60
18604.69,-126.29
18626.22,-127.54
18647.75,-127.61
18669.29,-127.54
18690.82,-127.54
18712.35,-126.91
18733.89,-126.99
18755.42,-127.07
18776.95,-126.83
18798.49,-127.15
18820.02,-126.83
18841.55,-126.21
18863.09,-126.60
18884.62,-127.93
18906.15,-127.46
18927.69,-126.68
18949.22,-126.52
18970.75,-127.69
18992.29,-128.71
19013.82,-128.08
19035.35,-128.00
19056.88,-127.38
19078.42,-127.54
19099.95,-127.30
19121.48,-127.30
19143.02,-127.61
19164.55,-127.69
19186.08,-128.00
19207.62,-127.85
19229.15,-127.61
19250.68,-127.61
19272.22,-127.46
19293.75,-127.22
19315.28,-127.22
19336.82,-126.91
19358.35,-127.22
19379.88,-127.54
19401.42,-128.00
19422.95,-127.93
19444.48,-127.77
19466.02,-127.61
19487.55,-127.07
19509.08,-127.54
19530.62,-127.85
19552.15,-128.40
19573.68,-127.46
19595.21,-128.16
19616.75,-128.16
19638.28,-128.08
19659.81,-128.08
19681.35,-128.00
19702.88,-128.08
19724.41,-128.00
19745.95,-128.24
19767.48,-128.00
19789.01,-127.30
19810.55,-126.83
19832.08,-126.91
19853.61,-127.69
19875.15,-127.46
19896.68,-127.38
19918.21,-128.00
19939.75,-128.55
19961.28,-128.16
19982.81,-128.40
20004.35,-128.16
20025.88,-127.77
20047.41,-127.93
20068.95,-127.85
20090.48,-127.61
20112.01,-128.24
20133.54,-127.85
20155.08,-127.38
20176.61,-127.77
20198.14,-127.93
20219.68,-128.08
20241.21,-128.47
20262.74,-128.08
20284.28,-128.32
20305.81,-128.00
20327.34,-127.54
20348.88,-127.93
20370.41,-127.77
20391.94,-127.46
20413.48,-127.77
20435.01,-128.00
20456.54,-128.00
20478.08,-127.22
20499.61,-127.38
20521.14,-127.69
20542.68,-127.46
20564.21,-127.85
20585.74,-128.24
20607.28,-127.93
20628.81,-127.93
20650.34,-128.00
20671.88,-128.16
20693.41,-127.69
20714.94,-127.22
20736.47,-127.38
20758.01,-127.93
20779.54,-127.77
20801.07,-127.77
20822.61,-127.22
20844.14,-127.38
20865.67,-127.69
20887.21,-127.54
20908.74,-127.85
20930.27,-128.00
20951.81,-128.08
20973.34,-127.85
20994.87,-127.93
21016.41,-127.85
21037.94,-127.77
21059.47,-127.46
21081.01,-128.16
21102.54,-127.85
21124.07,-127.30
21145.61,-127.22
21167.14,-127.22
21188.67,-127.61
21210.21,-127.15
21231.74,-127.69
21253.27,-127.77
21274.80,-127.46
21296.34,-127.93
21317.87,-127.93
21339.40,-127.54
21360.94,-127.22
21382.47,-128.00
21404.00,-127.22
21425.54,-126.99
21447.07,-127.46
21468.60,-127.30
21490.14,-127.69
21511.67,-127.30
21533.20,-127.61
21554.74,-127.77
21576.27,-127.46
21597.80,-126.99
21619.34,-126.83
21640.87,-127.15
21662.40,-126.68
21683.94,-126.99
21705.47,-126.52
21727.00,-126.68
21748.54,-127.07
21770.07,-127.69
21791.60,-127.22
21813.13,-126.91
21834.67,-126.21
21856.20,-126.99
21877.73,-126.44
21899.27,-126.13
21920.80,-126.60
21942.33,-126.68
21963.87,-126.29
21985.40,-126.83
22006.93,-125.97
22028.47,-125.97
22050.00,-126.91
