Frequency (Hz),Power (dB),44100.0000,2048,0,2.0000,0,L+R
0.00,-39.94
21.53,-27.90
43.07,-27.51
64.60,-34.54
86.13,-34.86
107.67,-35.33
129.20,-40.56
150.73,-41.89
172.27,-42.59
193.80,-45.64
215.33,-45.25
236.87,-44.39
258.40,-44.31
279.93,-46.66
301.46,-48.69
323.00,-47.59
344.53,-49.39
366.06,-49.16
387.60,-44.70
409.13,-47.28
430.66,-50.72
452.20,-45.80
473.73,-47.44
495.26,-47.28
516.80,-40.01
538.33,-42.12
559.86,-48.45
581.40,-41.58
602.93,-43.61
624.46,-48.22
646.00,-39.31
667.53,-40.87
689.06,-45.72
710.60,-36.19
732.13,-37.44
753.66,-32.67
775.20,-20.48
796.73,-21.42
818.26,-36.42
839.79,-33.22
861.33,-33.84
882.86,-46.27
904.39,-37.90
925.93,-38.14
947.46,-48.22
968.99,-39.62
990.53,-39.39
1012.06,-45.80
1033.59,-37.12
1055.13,-36.73
1076.66,-46.58
1098.19,-44.00
1119.73,-43.22
1141.26,-49.70
1162.79,-45.88
1184.33,-45.02
1205.86,-47.44
1227.39,-44.16
1248.93,-42.83
1270.46,-44.55
1291.99,-42.44
1313.53,-40.87
1335.06,-41.58
1356.59,-43.14
1378.13,-44.31
1399.66,-43.92
1421.19,-43.84
1442.72,-43.77
1464.26,-42.75
1485.79,-43.92
1507.32,-44.16
1528.86,-37.59
1550.39,-39.08
1571.92,-41.50
1593.46,-34.31
1614.99,-35.95
1636.52,-45.88
1658.06,-41.81
1679.59,-43.14
1701.12,-48.92
1722.66,-46.11
1744.19,-46.11
1765.72,-47.36
1787.26,-46.27
1808.79,-46.27
1830.32,-45.56
1851.86,-44.31
1873.39,-44.78
1894.92,-46.19
1916.46,-47.67
1937.99,-48.06
1959.52,-46.19
1981.05,-48.69
2002.59,-48.45
2024.12,-45.09
2045.65,-46.89
2067.19,-44.55
2088.72,-38.92
2110.25,-42.83
2131.79,-46.58
2153.32,-42.36
2174.85,-45.33
2196.39,-47.75
2217.92,-42.20
2239.45,-44.55
2260.99,-43.69
2282.52,-37.12
2304.05,-40.33
2325.59,-41.97
2347.12,-33.68
2368.65,-36.34
2390.19,-44.08
2411.72,-36.73
2433.25,-39.00
2454.79,-46.58
2476.32,-41.50
2497.85,-42.91
2519.38,-46.19
2540.92,-39.86
2562.45,-41.34
2583.98,-44.78
2605.52,-39.31
2627.05,-40.64
2648.58,-46.19
2670.12,-44.63
2691.65,-45.17
2713.18,-47.05
2734.72,-45.17
2756.25,-45.02
2777.78,-46.34
2799.32,-46.42
2820.85,-44.70
2842.38,-41.89
2863.92,-42.91
2885.45,-41.58
2906.98,-36.97
2928.52,-40.64
2950.05,-43.14
2971.58,-39.47
2993.12,-42.59
3014.65,-42.36
3036.18,-37.44
3057.71,-40.48
3079.25,-42.75
3100.78,-39.00
3122.31,-41.19
3143.85,-41.42
3165.38,-35.40
3186.91,-38.45
3208.45,-43.22
3229.98,-37.98
3251.51,-40.64
3273.05,-45.33
3294.58,-42.05
3316.11,-43.92
3337.65,-45.95
3359.18,-42.83
3380.71,-44.23
3402.25,-45.88
3423.78,-42.28
3445.31,-43.53
3466.85,-46.58
3488.38,-45.88
3509.91,-45.88
3531.45,-44.94
3552.98,-45.33
3574.51,-44.94
3596.04,-43.30
3617.58,-45.48
3639.11,-45.72
3660.64,-43.06
3682.18,-44.86
3703.71,-45.17
3725.24,-43.92
3746.78,-45.72
3768.31,-46.27
3789.84,-44.55
3811.38,-45.95
3832.91,-45.41
3854.44,-42.12
3875.98,-44.94
3897.51,-45.72
3919.04,-42.36
3940.58,-44.86
3962.11,-44.70
3983.64,-41.58
4005.18,-44.00
4026.71,-46.58
4048.24,-43.69
4069.78,-45.25
4091.31,-45.25
4112.84,-40.95
4134.38,-43.06
4155.91,-45.72
4177.44,-42.44
4198.97,-44.39
4220.51,-46.42
4242.04,-43.61
4263.57,-44.86
4285.11,-46.66
4306.64,-45.33
4328.17,-45.33
4349.71,-45.56
4371.24,-44.86
4392.77,-44.94
4414.31,-44.08
4435.84,-44.47
4457.37,-44.08
4478.91,-41.26
4500.44,-44.55
4521.97,-44.78
4543.51,-42.83
4565.04,-46.19
4586.57,-43.92
4608.11,-40.80
4629.64,-43.77
4651.17,-42.67
4672.71,-40.33
4694.24,-44.55
4715.77,-46.11
4737.30,-43.30
4758.84,-45.64
4780.37,-44.70
4801.90,-41.50
4823.44,-44.55
4844.97,-44.31
4866.50,-40.25
4888.04,-42.91
4909.57,-45.48
4931.10,-44.08
4952.64,-45.88
4974.17,-46.42
4995.70,-44.47
5017.24,-46.50
5038.77,-47.59
5060.30,-46.81
5081.84,-46.58
5103.37,-45.56
5124.90,-45.41
5146.44,-45.33
5167.97,-44.47
5189.50,-46.19
5211.04,-46.50
5232.57,-45.09
5254.10,-46.89
5275.63,-47.05
5297.17,-46.58
5318.70,-48.30
5340.23,-47.67
5361.77,-45.33
5383.30,-45.95
5404.83,-47.05
5426.37,-46.74
5447.90,-47.83
5469.43,-47.05
5490.97,-45.95
5512.50,-48.14
5534.03,-48.22
5555.57,-46.66
5577.10,-48.14
5598.63,-48.45
5620.17,-47.36
5641.70,-48.45
5663.23,-47.91
5684.77,-45.17
5706.30,-46.97
5727.83,-48.22
5749.37,-46.03
5770.90,-47.44
5792.43,-48.53
5813.96,-46.81
5835.50,-47.75
5857.03,-49.08
5878.56,-48.53
5900.10,-47.83
5921.63,-47.36
5943.16,-47.75
5964.70,-47.75
5986.23,-47.75
6007.76,-48.53
6029.30,-48.61
6050.83,-47.83
6072.36,-47.99
6093.90,-48.61
6115.43,-49.24
6136.96,-49.86
6158.50,-47.44
6180.03,-46.66
6201.56,-48.38
6223.10,-47.20
6244.63,-46.03
6266.16,-48.06
6287.70,-46.89
6309.23,-46.97
6330.76,-49.08
6352.29,-48.14
6373.83,-47.20
6395.36,-47.91
6416.89,-45.88
6438.43,-43.61
6459.96,-46.42
6481.49,-47.75
6503.03,-44.94
6524.56,-46.66
6546.09,-48.61
6567.63,-48.22
6589.16,-49.55
6610.69,-49.24
6632.23,-48.77
6653.76,-48.53
6675.29,-47.75
6696.83,-47.44
6718.36,-47.99
6739.89,-47.44
6761.43,-48.22
6782.96,-49.78
6804.49,-49.70
6826.03,-49.24
6847.56,-49.31
6869.09,-48.92
6890.63,-50.10
6912.16,-50.17
6933.69,-48.84
6955.22,-48.45
6976.76,-48.45
6998.29,-49.00
7019.82,-48.77
7041.36,-48.30
7062.89,-48.92
7084.42,-49.86
7105.96,-50.17
7127.49,-50.10
7149.02,-51.11
7170.56,-50.88
7192.09,-49.63
7213.62,-50.80
7235.16,-51.19
7256.69,-50.10
7278.22,-50.95
7299.76,-50.25
7321.29,-49.63
7342.82,-49.78
7364.36,-49.86
7385.89,-50.02
7407.42,-51.11
7428.96,-51.03
7450.49,-50.95
7472.02,-50.49
7493.55,-49.55
7515.09,-50.88
7536.62,-50.80
7558.15,-50.88
7579.69,-51.11
7601.22,-51.11
7622.75,-51.58
7644.29,-51.11
7665.82,-51.42
7687.35,-51.81
7708.89,-51.27
7730.42,-49.16
7751.95,-50.10
7773.49,-51.50
7795.02,-50.72
7816.55,-50.72
7838.09,-51.74
7859.62,-50.33
7881.15,-50.17
7902.69,-51.11
7924.22,-50.17
7945.75,-49.63
7967.29,-51.27
7988.82,-49.94
8010.35,-48.38
8031.88,-50.25
8053.42,-50.33
8074.95,-48.84
8096.48,-50.02
8118.02,-50.49
8139.55,-50.10
8161.08,-50.95
8182.62,-50.80
8204.15,-51.11
8225.68,-51.66
8247.22,-50.95
8268.75,-50.64
8290.28,-51.50
8311.82,-50.64
8333.35,-50.56
8354.88,-51.74
8376.42,-52.60
8397.95,-50.80
8419.48,-50.17
8441.02,-50.80
8462.55,-50.56
8484.08,-50.56
8505.62,-51.74
8527.15,-51.27
8548.68,-51.19
8570.21,-51.19
8591.75,-50.56
8613.28,-50.17
8634.81,-50.95
8656.35,-51.27
8677.88,-51.89
8699.41,-51.81
8720.95,-51.97
8742.48,-52.13
8764.01,-51.35
8785.55,-51.89
8807.08,-52.75
8828.61,-52.44
8850.15,-52.67
8871.68,-53.14
8893.21,-51.97
8914.75,-52.75
8936.28,-52.91
8957.81,-52.67
8979.35,-52.99
9000.88,-53.14
9022.41,-52.67
9043.95,-52.75
9065.48,-53.22
9087.01,-53.85
9108.54,-53.61
9130.08,-53.22
9151.61,-52.60
9173.14,-52.44
9194.68,-53.53
9216.21,-52.75
9237.74,-52.83
9259.28,-53.14
9280.81,-52.67
9302.34,-51.97
9323.88,-52.60
9345.41,-52.91
9366.94,-52.52
9388.48,-53.85
9410.01,-53.30
9431.54,-52.36
9453.08,-52.52
9474.61,-52.52
9496.14,-52.21
9517.68,-52.52
9539.21,-53.22
9560.74,-52.91
9582.28,-52.28
9603.81,-53.06
9625.34,-53.46
9646.88,-53.85
9668.41,-53.53
9689.94,-52.36
9711.47,-52.99
9733.01,-53.61
9754.54,-53.22
9776.07,-53.22
9797.61,-53.61
9819.14,-52.75
9840.67,-53.14
9862.21,-53.85
9883.74,-52.91
9905.27,-52.75
9926.81,-52.75
9948.34,-53.22
9969.87,-52.67
9991.41,-52.21
10012.94,-52.44
10034.47,-52.05
10056.01,-52.21
10077.54,-53.14
10099.07,-52.99
10120.61,-53.61
10142.14,-53.61
10163.67,-53.30
10185.21,-52.67
10206.74,-52.36
10228.27,-52.44
10249.80,-52.99
10271.34,-52.91
10292.87,-53.38
10314.40,-53.92
10335.94,-53.06
10357.47,-53.06
10379.00,-53.06
10400.54,-52.52
10422.07,-53.14
10443.60,-53.30
10465.14,-53.46
10486.67,-54.00
10508.20,-54.08
10529.74,-53.69
10551.27,-53.77
10572.80,-53.53
10594.34,-53.92
10615.87,-54.55
10637.40,-54.94
10658.94,-54.94
10680.47,-54.71
10702.00,-54.78
10723.54,-54.08
10745.07,-54.00
10766.60,-54.55
10788.13,-53.53
10809.67,-52.99
10831.20,-53.77
10852.73,-54.32
10874.27,-54.00
10895.80,-54.08
10917.33,-53.77
10938.87,-53.77
10960.40,-54.08
10981.93,-53.85
11003.47,-53.69
11025.00,-54.08
11046.53,-53.92
11068.07,-54.08
11089.60,-53.30
11111.13,-53.77
11132.67,-54.32
11154.20,-54.78
11175.73,-54.94
11197.27,-54.78
11218.80,-55.02
11240.33,-54.47
11261.87,-54.00
11283.40,-53.69
11304.93,-53.92
11326.46,-53.92
11348.00,-53.92
11369.53,-54.39
11391.06,-55.10
11412.60,-55.64
11434.13,-55.72
11455.66,-55.17
11477.20,-55.10
11498.73,-54.94
11520.26,-54.78
11541.80,-54.47
11563.33,-54.71
11584.86,-54.16
11606.40,-53.46
11627.93,-53.85
11649.46,-54.63
11671.00,-54.78
11692.53,-55.02
11714.06,-54.86
11735.60,-54.55
11757.13,-54.39
11778.66,-54.32
11800.20,-54.71
11821.73,-54.94
11843.26,-54.86
11864.79,-54.78
11886.33,-55.02
11907.86,-54.00
11929.39,-54.32
11950.93,-54.32
11972.46,-54.78
11993.99,-55.33
12015.53,-55.88
12037.06,-55.33
12058.59,-54.94
12080.13,-54.94
12101.66,-55.10
12123.19,-54.94
12144.73,-54.94
12166.26,-54.16
12187.79,-54.94
12209.33,-55.02
12230.86,-54.78
12252.39,-55.72
12273.93,-55.64
12295.46,-55.02
12316.99,-55.10
12338.53,-55.49
12360.06,-55.02
12381.59,-54.78
12403.13,-54.39
12424.66,-54.47
12446.19,-55.02
12467.72,-54.78
12489.26,-55.41
12510.79,-55.72
12532.32,-55.64
12553.86,-55.33
12575.39,-55.41
12596.92,-55.80
12618.46,-55.02
12639.99,-55.64
12661.52,-55.49
12683.06,-54.78
12704.59,-55.02
12726.12,-55.33
12747.66,-55.02
12769.19,-55.02
12790.72,-55.25
12812.26,-55.25
12833.79,-54.71
12855.32,-54.55
12876.86,-54.94
12898.39,-55.41
12919.92,-55.02
12941.46,-56.50
12962.99,-56.82
12984.52,-56.74
13006.05,-56.35
13027.59,-56.58
13049.12,-56.19
13070.65,-55.64
13092.19,-55.57
13113.72,-56.19
13135.25,-56.50
13156.79,-54.94
13178.32,-54.63
13199.85,-55.10
13221.39,-54.86
13242.92,-54.94
13264.45,-55.41
13285.99,-55.02
13307.52,-55.88
13329.05,-56.11
13350.59,-56.11
13372.12,-56.27
13393.65,-56.50
13415.19,-55.96
13436.72,-55.33
13458.25,-56.27
13479.79,-55.72
13501.32,-55.41
13522.85,-55.72
13544.38,-55.96
13565.92,-56.11
13587.45,-55.96
13608.98,-56.50
13630.52,-55.96
13652.05,-56.27
13673.58,-55.64
13695.12,-54.94
13716.65,-55.64
13738.18,-55.33
13759.72,-56.03
13781.25,-56.35
13802.78,-55.72
13824.32,-55.96
13845.85,-56.42
13867.38,-56.03
13888.92,-55.96
13910.45,-55.96
13931.98,-56.82
13953.52,-55.96
13975.05,-55.57
13996.58,-55.88
14018.12,-56.11
14039.65,-55.80
14061.18,-55.80
14082.71,-56.35
14104.25,-56.82
14125.78,-56.89
14147.31,-57.36
14168.85,-57.36
14190.38,-56.35
14211.91,-56.42
14233.45,-56.35
14254.98,-55.80
14276.51,-56.27
14298.05,-55.57
14319.58,-55.49
14341.11,-55.72
14362.65,-56.50
14384.18,-56.11
14405.71,-55.57
14427.25,-55.72
14448.78,-56.03
14470.31,-55.72
14491.85,-55.80
14513.38,-56.42
14534.91,-56.66
14556.45,-56.50
14577.98,-56.97
14599.51,-56.82
14621.04,-57.28
14642.58,-56.74
14664.11,-55.72
14685.64,-56.89
14707.18,-56.82
14728.71,-55.49
14750.24,-56.82
14771.78,-56.97
14793.31,-55.96
14814.84,-56.35
14836.38,-56.58
14857.91,-55.25
14879.44,-56.35
14900.98,-57.13
14922.51,-57.05
14944.04,-56.74
14965.58,-56.82
14987.11,-57.21
15008.64,-57.68
15030.18,-58.38
15051.71,-57.28
15073.24,-57.36
15094.78,-57.83
15116.31,-57.21
15137.84,-57.83
15159.38,-57.99
15180.91,-56.74
15202.44,-56.58
15223.97,-57.05
15245.51,-57.44
15267.04,-56.82
15288.57,-57.13
15310.11,-56.50
15331.64,-57.28
15353.17,-57.68
15374.71,-56.74
15396.24,-56.89
15417.77,-58.30
15439.31,-57.52
15460.84,-57.60
15482.37,-57.60
15503.91,-57.99
15525.44,-58.07
15546.97,-57.68
15568.51,-57.99
15590.04,-57.75
15611.57,-57.68
15633.11,-57.68
15654.64,-57.52
15676.17,-57.83
15697.71,-57.83
15719.24,-57.75
15740.77,-57.91
15762.30,-57.21
15783.84,-58.07
15805.37,-57.91
15826.90,-57.68
15848.44,-58.14
15869.97,-58.77
15891.50,-57.99
15913.04,-57.36
15934.57,-58.46
15956.10,-58.38
15977.64,-58.14
15999.17,-57.91
16020.70,-58.07
16042.24,-57.68
16063.77,-58.22
16085.30,-58.46
16106.84,-58.38
16128.37,-58.61
16149.90,-58.53
16171.44,-58.22
16192.97,-58.85
16214.50,-58.38
16236.04,-57.60
16257.57,-58.77
16279.10,-58.69
16300.63,-57.83
16322.17,-58.07
16343.70,-57.99
16365.23,-57.75
16386.77,-59.63
16408.30,-58.77
16429.83,-58.22
16451.37,-59.16
16472.90,-58.93
16494.43,-57.83
16515.97,-58.69
16537.50,-59.55
16559.03,-58.85
16580.57,-58.93
16602.10,-59.47
16623.63,-59.63
16645.17,-59.63
16666.70,-59.71
16688.23,-59.24
16709.77,-59.39
16731.30,-58.93
16752.83,-58.77
16774.37,-59.00
16795.90,-59.55
16817.43,-58.85
16838.96,-59.32
16860.50,-59.16
16882.03,-58.46
16903.56,-59.39
16925.10,-59.86
16946.63,-59.47
16968.16,-60.10
16989.70,-60.18
17011.23,-59.55
17032.76,-59.79
17054.30,-59.71
17075.83,-59.24
17097.36,-59.71
17118.90,-59.71
17140.43,-59.86
17161.96,-60.18
17183.50,-60.18
17205.03,-59.47
17226.56,-59.00
17248.10,-59.79
17269.63,-59.79
17291.16,-59.94
17312.70,-59.86
17334.23,-59.71
17355.76,-60.02
17377.29,-60.64
17398.83,-60.33
17420.36,-60.49
17441.89,-60.80
17463.43,-60.10
17484.96,-60.41
17506.49,-61.35
17528.03,-59.86
17549.56,-59.24
17571.09,-60.02
17592.63,-60.33
17614.16,-59.79
17635.69,-60.33
17657.23,-60.10
17678.76,-59.86
17700.29,-60.96
17721.83,-61.11
17743.36,-59.71
17764.89,-60.41
17786.43,-60.72
17807.96,-60.18
17829.49,-60.64
17851.03,-60.10
17872.56,-59.63
17894.09,-60.96
17915.63,-60.49
17937.16,-60.25
17958.69,-61.19
17980.22,-60.57
18001.76,-60.10
18023.29,-60.96
18044.82,-60.80
18066.36,-60.80
18087.89,-61.19
18109.42,-61.43
18130.96,-60.80
18152.49,-61.19
18174.02,-60.96
18195.56,-60.64
18217.09,-61.43
18238.62,-61.50
18260.16,-60.88
18281.69,-61.11
18303.22,-61.50
18324.76,-60.49
18346.29,-60.72
18367.82,-61.11
18389.36,-60.96
18410.89,-61.35
18432.42,-60.49
18453.96,-60.88
18475.49,-61.35
18497.02,-61.27
18518.55,-60.96
18540.09,-61.43
18561.62,-61.74
18583.15,-61.27
18604.69,-61.89
18626.22,-62.05
18647.75,-61.35
18669.29,-61.58
18690.82,-61.97
18712.35,-60.80
18733.89,-61.27
18755.42,-61.97
18776.95,-61.74
18798.49,-61.19
18820.02,-61.74
18841.55,-61.74
18863.09,-61.66
18884.62,-61.19
18906.15,-61.43
18927.69,-61.74
18949.22,-61.89
18970.75,-61.66
18992.29,-62.21
19013.82,-62.13
19035.35,-61.43
19056.88,-61.35
19078.42,-62.13
19099.95,-62.29
19121.48,-61.50
19143.02,-61.82
19164.55,-61.58
19186.08,-61.66
19207.62,-61.89
19229.15,-61.74
19250.68,-61.82
19272.22,-62.21
19293.75,-61.89
19315.28,-61.66
19336.82,-62.68
19358.35,-62.52
19379.88,-62.29
19401.42,-62.68
19422.95,-61.97
19444.48,-61.97
19466.02,-61.89
19487.55,-62.13
19509.08,-62.52
19530.62,-62.75
19552.15,-62.60
19573.68,-61.82
19595.21,-62.29
19616.75,-62.29
19638.28,-62.05
19659.81,-62.60
19681.35,-62.44
19702.88,-62.21
19724.41,-62.36
19745.95,-62.29
19767.48,-62.21
19789.01,-62.44
19810.55,-62.52
19832.08,-62.05
19853.61,-62.13
19875.15,-61.89
19896.68,-62.21
19918.21,-61.97
19939.75,-62.68
19961.28,-62.36
19982.81,-62.60
20004.35,-62.60
20025.88,-62.36
20047.41,-63.46
20068.95,-63.07
20090.48,-61.66
20112.01,-62.29
20133.54,-62.83
20155.08,-62.44
20176.61,-62.91
20198.14,-62.60
20219.68,-62.68
20241.21,-63.30
20262.74,-62.60
20284.28,-62.75
20305.81,-63.07
20327.34,-62.83
20348.88,-62.52
20370.41,-62.75
20391.94,-62.83
20413.48,-62.68
20435.01,-63.15
20456.54,-63.07
20478.08,-62.60
20499.61,-62.99
20521.14,-63.61
20542.68,-63.30
20564.21,-63.46
20585.74,-63.61
20607.28,-63.61
20628.81,-63.54
20650.34,-63.85
20671.88,-62.44
20693.41,-62.75
20714.94,-64.00
20736.47,-63.46
20758.01,-63.46
20779.54,-63.07
20801.07,-63.30
20822.61,-63.54
20844.14,-63.93
20865.67,-63.61
20887.21,-63.69
20908.74,-64.40
20930.27,-64.40
20951.81,-64.00
20973.34,-64.32
20994.87,-64.08
21016.41,-64.00
21037.94,-64.00
21059.47,-64.16
21081.01,-64.55
21102.54,-63.85
21124.07,-64.24
21145.61,-63.77
21167.14,-64.55
21188.67,-64.16
21210.21,-64.47
21231.74,-63.93
21253.27,-64.32
21274.80,-65.02
21296.34,-64.79
21317.87,-64.16
21339.40,-64.08
21360.94,-64.47
21382.47,-64.24
21404.00,-63.93
21425.54,-63.69
21447.07,-64.63
21468.60,-64.32
21490.14,-64.08
21511.67,-64.55
21533.20,-64.63
21554.74,-64.94
21576.27,-65.02
21597.80,-64.71
21619.34,-64.40
21640.87,-64.40
21662.40,-64.55
21683.94,-64.55
21705.47,-63.93
21727.00,-64.16
21748.54,-63.93
21770.07,-64.63
21791.60,-64.63
21813.13,-63.85
21834.67,-64.00
21856.20,-64.16
21877.73,-64.00
21899.27,-64.47
21920.80,-64.71
21942.33,-64.55
21963.87,-64.00
21985.40,-64.16
22006.93,-64.32
22028.47,-64.08
22050.00,-64.79
