Frequency (Hz),Power (dB),44100.0000,2048,0,2.0000,0,L+R
0.00,-50.33
21.53,-42.59
43.07,-39.16
64.60,-36.50
86.13,-35.01
107.67,-31.65
129.20,-27.43
150.73,-29.31
172.27,-30.09
193.80,-34.62
215.33,-33.84
236.87,-33.76
258.40,-38.14
279.93,-39.62
301.46,-40.09
323.00,-45.48
344.53,-46.50
366.06,-45.48
387.60,-42.44
409.13,-42.44
430.66,-41.26
452.20,-42.28
473.73,-44.00
495.26,-45.25
516.80,-46.58
538.33,-47.67
559.86,-48.45
581.40,-49.70
602.93,-50.49
624.46,-49.39
646.00,-49.24
667.53,-48.38
689.06,-46.97
710.60,-47.44
732.13,-48.22
753.66,-48.22
775.20,-47.99
796.73,-47.83
818.26,-48.06
839.79,-47.75
861.33,-48.14
882.86,-49.55
904.39,-50.95
925.93,-51.19
947.46,-51.11
968.99,-51.35
990.53,-51.11
1012.06,-51.58
1033.59,-52.28
1055.13,-52.05
1076.66,-51.50
1098.19,-51.74
1119.73,-50.88
1141.26,-49.55
1162.79,-49.47
1184.33,-48.61
1205.86,-48.53
1227.39,-49.55
1248.93,-49.39
1270.46,-50.02
1291.99,-51.19
1313.53,-51.03
1335.06,-52.05
1356.59,-52.75
1378.13,-52.60
1399.66,-52.28
1421.19,-51.27
1442.72,-48.92
1464.26,-49.47
1485.79,-49.39
1507.32,-48.14
1528.86,-49.24
1550.39,-49.16
1571.92,-47.83
1593.46,-49.70
1614.99,-50.49
1636.52,-50.17
1658.06,-51.81
1679.59,-51.81
1701.12,-50.49
1722.66,-51.50
1744.19,-51.35
1765.72,-49.63
1787.26,-49.24
1808.79,-48.61
1830.32,-47.75
1851.86,-49.16
1873.39,-49.16
1894.92,-48.53
1916.46,-50.10
1937.99,-50.25
1959.52,-49.55
1981.05,-50.25
2002.59,-49.86
2024.12,-49.39
2045.65,-49.94
2067.19,-49.31
2088.72,-49.47
2110.25,-50.56
2131.79,-50.41
2153.32,-49.31
2174.85,-49.94
2196.39,-49.70
2217.92,-49.94
2239.45,-50.25
2260.99,-49.78
2282.52,-50.49
2304.05,-50.88
2325.59,-49.94
2347.12,-50.95
2368.65,-51.35
2390.19,-50.64
2411.72,-50.80
2433.25,-51.19
2454.79,-50.56
2476.32,-51.03
2497.85,-51.27
2519.38,-51.42
2540.92,-51.66
2562.45,-51.89
2583.98,-50.80
2605.52,-51.50
2627.05,-51.11
2648.58,-50.72
2670.12,-52.21
2691.65,-52.44
2713.18,-52.36
2734.72,-52.52
2756.25,-52.36
2777.78,-51.89
2799.32,-52.75
2820.85,-52.52
2842.38,-52.21
2863.92,-52.99
2885.45,-52.91
2906.98,-53.30
2928.52,-53.77
2950.05,-53.06
2971.58,-53.22
2993.12,-53.61
3014.65,-53.06
3036.18,-53.30
3057.71,-53.85
3079.25,-53.53
3100.78,-53.46
3122.31,-54.00
3143.85,-53.77
3165.38,-53.85
3186.91,-54.08
3208.45,-53.69
3229.98,-54.39
3251.51,-54.39
3273.05,-53.92
3294.58,-54.55
3316.11,-54.94
3337.65,-54.78
3359.18,-55.41
3380.71,-55.49
3402.25,-54.71
3423.78,-55.80
3445.31,-55.96
3466.85,-55.02
3488.38,-55.25
3509.91,-55.10
3531.45,-54.86
3552.98,-55.64
3574.51,-55.80
3596.04,-56.19
3617.58,-56.35
3639.11,-56.19
3660.64,-55.96
3682.18,-57.28
3703.71,-57.68
3725.24,-57.28
3746.78,-57.75
3768.31,-57.75
3789.84,-57.60
3811.38,-57.36
3832.91,-56.58
3854.44,-56.58
3875.98,-56.74
3897.51,-56.82
3919.04,-57.68
3940.58,-58.46
3962.11,-58.85
3983.64,-58.61
4005.18,-58.85
4026.71,-58.38
4048.24,-58.53
4069.78,-58.77
4091.31,-58.14
4112.84,-58.77
4134.38,-57.36
4155.91,-56.11
4177.44,-57.05
4198.97,-57.75
4220.51,-59.08
4242.04,-58.93
4263.57,-58.93
4285.11,-58.85
4306.64,-59.55
4328.17,-59.71
4349.71,-59.32
4371.24,-59.63
4392.77,-59.55
4414.31,-59.24
4435.84,-59.94
4457.37,-60.25
4478.91,-60.10
4500.44,-60.10
4521.97,-59.86
4543.51,-59.55
4565.04,-60.10
4586.57,-59.86
4608.11,-60.02
4629.64,-60.41
4651.17,-60.10
4672.71,-60.25
4694.24,-60.57
4715.77,-60.41
4737.30,-60.64
4758.84,-60.96
4780.37,-60.96
4801.90,-61.19
4823.44,-61.66
4844.97,-61.27
4866.50,-60.96
4888.04,-61.27
4909.57,-61.04
4931.10,-61.35
4952.64,-61.74
4974.17,-61.50
4995.70,-61.43
5017.24,-61.74
5038.77,-61.58
5060.30,-62.05
5081.84,-62.44
5103.37,-62.29
5124.90,-62.60
5146.44,-62.68
5167.97,-62.05
5189.50,-62.44
5211.04,-62.44
5232.57,-62.68
5254.10,-63.22
5275.63,-63.38
5297.17,-63.54
5318.70,-63.77
5340.23,-63.69
5361.77,-63.61
5383.30,-63.61
5404.83,-63.22
5426.37,-63.69
5447.90,-63.61
5469.43,-63.77
5490.97,-63.46
5512.50,-64.08
5534.03,-64.40
5555.57,-64.16
5577.10,-64.79
5598.63,-64.71
5620.17,-64.63
5641.70,-64.86
5663.23,-64.40
5684.77,-64.55
5706.30,-64.79
5727.83,-64.79
5749.37,-64.86
5770.90,-64.86
5792.43,-64.71
5813.96,-64.79
5835.50,-64.79
5857.03,-64.63
5878.56,-65.49
5900.10,-65.80
5921.63,-65.33
5943.16,-65.57
5964.70,-65.41
5986.23,-65.18
6007.76,-65.33
6029.30,-65.10
6050.83,-64.94
6072.36,-65.41
6093.90,-65.72
6115.43,-65.80
6136.96,-66.35
6158.50,-66.27
6180.03,-66.51
6201.56,-66.11
6223.10,-65.88
6244.63,-65.96
6266.16,-65.96
6287.70,-65.96
6309.23,-65.72
6330.76,-66.04
6352.29,-66.04
6373.83,-66.43
6395.36,-66.74
6416.89,-66.74
6438.43,-66.97
6459.96,-67.13
6481.49,-67.05
6503.03,-67.05
6524.56,-66.90
6546.09,-66.74
6567.63,-66.82
6589.16,-66.74
6610.69,-66.66
6632.23,-67.13
6653.76,-67.44
6675.29,-67.99
6696.83,-68.15
6718.36,-68.54
6739.89,-68.38
6761.43,-68.22
6782.96,-67.99
6804.49,-67.99
6826.03,-68.22
6847.56,-68.38
6869.09,-68.22
6890.63,-68.22
6912.16,-67.99
6933.69,-67.83
6955.22,-68.30
6976.76,-68.69
6998.29,-68.93
7019.82,-68.93
7041.36,-69.16
7062.89,-68.93
7084.42,-69.16
7105.96,-69.08
7127.49,-68.93
7149.02,-68.77
7170.56,-68.77
7192.09,-68.93
7213.62,-68.93
7235.16,-69.16
7256.69,-69.40
7278.22,-69.63
7299.76,-69.79
7321.29,-69.55
7342.82,-69.63
7364.36,-69.40
7385.89,-69.47
7407.42,-69.71
7428.96,-69.08
7450.49,-69.01
7472.02,-69.08
7493.55,-69.08
7515.09,-69.63
7536.62,-69.87
7558.15,-70.26
7579.69,-70.49
7601.22,-70.41
7622.75,-70.26
7644.29,-70.33
7665.82,-70.26
7687.35,-70.02
7708.89,-70.02
7730.42,-69.55
7751.95,-69.32
7773.49,-69.47
7795.02,-69.87
7816.55,-69.71
7838.09,-70.73
7859.62,-70.65
7881.15,-70.57
7902.69,-70.88
7924.22,-70.96
7945.75,-70.57
7967.29,-70.73
7988.82,-70.49
8010.35,-70.49
8031.88,-70.57
8053.42,-70.80
8074.95,-70.73
8096.48,-70.88
8118.02,-70.96
8139.55,-70.57
8161.08,-70.65
8182.62,-70.88
8204.15,-70.65
8225.68,-71.19
8247.22,-71.27
8268.75,-71.58
8290.28,-71.66
8311.82,-71.82
8333.35,-71.82
8354.88,-71.66
8376.42,-71.58
8397.95,-71.58
8419.48,-71.66
8441.02,-72.13
8462.55,-72.05
8484.08,-72.21
8505.62,-71.58
8527.15,-71.58
8548.68,-71.43
8570.21,-71.66
8591.75,-71.74
8613.28,-71.98
8634.81,-72.05
8656.35,-72.60
8677.88,-72.52
8699.41,-72.99
8720.95,-73.15
8742.48,-73.23
8764.01,-72.99
8785.55,-72.91
8807.08,-72.91
8828.61,-72.68
8850.15,-72.60
8871.68,-72.52
8893.21,-72.44
8914.75,-72.52
8936.28,-72.52
8957.81,-72.52
8979.35,-72.76
9000.88,-72.76
9022.41,-72.99
9043.95,-73.46
9065.48,-73.15
9087.01,-72.99
9108.54,-72.91
9130.08,-72.68
9151.61,-72.84
9173.14,-72.91
9194.68,-72.99
9216.21,-73.07
9237.74,-73.30
9259.28,-73.62
9280.81,-73.54
9302.34,-73.69
9323.88,-73.30
9345.41,-73.07
9366.94,-73.15
9388.48,-72.99
9410.01,-73.23
9431.54,-73.07
9453.08,-72.91
9474.61,-72.91
9496.14,-72.99
9517.68,-73.07
9539.21,-73.62
9560.74,-74.01
9582.28,-73.93
9603.81,-74.32
9625.34,-74.09
9646.88,-73.93
9668.41,-73.85
9689.94,-73.85
9711.47,-73.30
9733.01,-73.62
9754.54,-73.69
9776.07,-73.62
9797.61,-74.01
9819.14,-74.16
9840.67,-74.16
9862.21,-74.63
9883.74,-74.55
9905.27,-74.87
9926.81,-74.79
9948.34,-74.55
9969.87,-74.09
9991.41,-74.16
10012.94,-73.93
10034.47,-74.16
10056.01,-74.16
10077.54,-74.09
10099.07,-74.32
10120.61,-74.63
10142.14,-74.71
10163.67,-75.02
10185.21,-75.26
10206.74,-75.10
10228.27,-75.34
10249.80,-75.26
10271.34,-75.18
10292.87,-74.95
10314.40,-74.71
10335.94,-74.16
10357.47,-74.24
10379.00,-74.24
10400.54,-74.24
10422.07,-74.79
10443.60,-74.87
10465.14,-75.18
10486.67,-75.34
10508.20,-75.41
10529.74,-75.41
10551.27,-75.57
10572.80,-75.65
10594.34,-75.57
10615.87,-75.49
10637.40,-75.57
10658.94,-75.65
10680.47,-75.88
10702.00,-76.04
10723.54,-75.88
10745.07,-75.73
10766.60,-75.57
10788.13,-75.41
10809.67,-75.41
10831.20,-75.49
10852.73,-75.49
10874.27,-75.80
10895.80,-75.96
10917.33,-76.04
10938.87,-76.04
10960.40,-76.12
10981.93,-76.12
11003.47,-76.66
11025.00,-76.51
11046.53,-76.12
11068.07,-76.27
11089.60,-76.12
11111.13,-76.51
11132.67,-76.59
11154.20,-76.35
11175.73,-75.96
11197.27,-76.04
11218.80,-75.73
11240.33,-76.04
11261.87,-76.51
11283.40,-76.51
11304.93,-76.51
11326.46,-76.51
11348.00,-76.27
11369.53,-76.43
11391.06,-76.59
11412.60,-76.43
11434.13,-76.43
11455.66,-76.43
11477.20,-76.20
11498.73,-76.74
11520.26,-76.90
11541.80,-76.74
11563.33,-77.05
11584.86,-76.82
11606.40,-76.66
11627.93,-76.82
11649.46,-76.59
11671.00,-76.59
11692.53,-76.66
11714.06,-76.66
11735.60,-76.35
11757.13,-76.59
11778.66,-76.43
11800.20,-76.82
11821.73,-77.45
11843.26,-77.37
11864.79,-77.76
11886.33,-77.68
11907.86,-77.76
11929.39,-77.52
11950.93,-77.76
11972.46,-77.45
11993.99,-77.68
12015.53,-77.52
12037.06,-77.13
12058.59,-76.82
12080.13,-77.21
12101.66,-77.21
12123.19,-77.68
12144.73,-77.84
12166.26,-77.68
12187.79,-77.76
12209.33,-77.76
12230.86,-77.76
12252.39,-77.76
12273.93,-77.84
12295.46,-77.84
12316.99,-77.76
12338.53,-77.84
12360.06,-77.91
12381.59,-77.91
12403.13,-78.07
12424.66,-77.60
12446.19,-77.91
12467.72,-77.99
12489.26,-77.76
12510.79,-78.31
12532.32,-78.07
12553.86,-78.38
12575.39,-78.31
12596.92,-78.38
12618.46,-78.23
12639.99,-78.07
12661.52,-78.23
12683.06,-77.91
12704.59,-78.54
12726.12,-78.38
12747.66,-78.38
12769.19,-78.15
12790.72,-77.99
12812.26,-77.76
12833.79,-78.15
12855.32,-78.07
12876.86,-78.38
12898.39,-78.77
12919.92,-78.54
12941.46,-78.93
12962.99,-78.70
12984.52,-78.85
13006.05,-78.85
13027.59,-78.77
13049.12,-78.54
13070.65,-78.38
13092.19,-78.23
13113.72,-78.23
13135.25,-78.15
13156.79,-78.23
13178.32,-77.84
13199.85,-78.31
13221.39,-78.23
13242.92,-78.62
13264.45,-79.09
13285.99,-79.48
13307.52,-79.48
13329.05,-79.71
13350.59,-79.56
13372.12,-79.63
13393.65,-79.40
13415.19,-79.40
13436.72,-78.85
13458.25,-78.93
13479.79,-79.09
13501.32,-79.16
13522.85,-79.63
13544.38,-79.63
13565.92,-79.40
13587.45,-79.63
13608.98,-79.40
13630.52,-79.48
13652.05,-79.71
13673.58,-79.40
13695.12,-79.56
13716.65,-79.32
13738.18,-79.16
13759.72,-79.09
13781.25,-79.09
13802.78,-79.24
13824.32,-79.40
13845.85,-79.48
13867.38,-79.56
13888.92,-79.40
13910.45,-79.63
13931.98,-79.40
13953.52,-79.79
13975.05,-80.02
13996.58,-79.63
14018.12,-79.87
14039.65,-79.40
14061.18,-79.40
14082.71,-79.48
14104.25,-79.40
14125.78,-79.63
14147.31,-79.71
14168.85,-79.71
14190.38,-79.95
14211.91,-80.02
14233.45,-80.34
14254.98,-80.34
14276.51,-80.10
14298.05,-80.34
14319.58,-79.87
14341.11,-80.02
14362.65,-79.71
14384.18,-79.87
14405.71,-80.02
14427.25,-80.26
14448.78,-80.42
14470.31,-80.65
14491.85,-80.81
14513.38,-80.73
14534.91,-80.57
14556.45,-80.34
14577.98,-80.34
14599.51,-80.57
14621.04,-80.49
14642.58,-80.65
14664.11,-80.65
14685.64,-80.65
14707.18,-80.49
14728.71,-80.57
14750.24,-80.26
14771.78,-79.95
14793.31,-79.87
14814.84,-79.87
14836.38,-80.34
14857.91,-80.65
14879.44,-80.65
14900.98,-80.49
14922.51,-80.57
14944.04,-80.34
14965.58,-80.81
14987.11,-80.81
15008.64,-80.65
15030.18,-80.65
15051.71,-80.57
15073.24,-80.42
15094.78,-80.57
15116.31,-80.57
15137.84,-80.65
15159.38,-80.73
15180.91,-80.65
15202.44,-80.49
15223.97,-80.81
15245.51,-80.57
15267.04,-80.73
15288.57,-80.96
15310.11,-80.96
15331.64,-80.96
15353.17,-80.73
15374.71,-80.49
15396.24,-80.18
15417.77,-80.42
15439.31,-80.42
15460.84,-80.65
15482.37,-80.88
15503.91,-80.81
15525.44,-81.27
15546.97,-81.12
15568.51,-81.35
15590.04,-81.51
15611.57,-81.59
15633.11,-81.67
15654.64,-81.98
15676.17,-81.74
15697.71,-81.82
15719.24,-81.67
15740.77,-81.59
15762.30,-80.88
15783.84,-80.65
15805.37,-80.65
15826.90,-80.73
15848.44,-81.04
15869.97,-81.51
15891.50,-81.82
15913.04,-82.21
15934.57,-82.13
15956.10,-82.29
15977.64,-82.13
15999.17,-82.21
16020.70,-82.13
16042.24,-82.37
16063.77,-82.37
16085.30,-82.13
16106.84,-82.06
16128.37,-81.74
16149.90,-81.67
16171.44,-81.43
16192.97,-81.51
16214.50,-81.35
16236.04,-81.59
16257.57,-81.90
16279.10,-81.90
16300.63,-82.21
16322.17,-81.90
16343.70,-81.74
16365.23,-81.82
16386.77,-81.90
16408.30,-82.13
16429.83,-82.21
16451.37,-82.37
16472.90,-82.21
16494.43,-82.21
16515.97,-81.90
16537.50,-81.98
16559.03,-81.67
16580.57,-81.51
16602.10,-81.43
16623.63,-81.59
16645.17,-81.59
16666.70,-81.90
16688.23,-81.82
16709.77,-81.67
16731.30,-81.74
16752.83,-81.43
16774.37,-81.59
16795.90,-81.59
16817.43,-81.90
16838.96,-82.06
16860.50,-82.06
16882.03,-81.90
16903.56,-81.82
16925.10,-81.98
16946.63,-81.98
16968.16,-82.45
16989.70,-82.53
17011.23,-82.37
17032.76,-82.92
17054.30,-82.53
17075.83,-82.76
17097.36,-82.45
17118.90,-82.45
17140.43,-82.13
17161.96,-82.29
17183.50,-82.13
17205.03,-82.13
17226.56,-82.13
17248.10,-82.45
17269.63,-82.45
17291.16,-82.68
17312.70,-82.68
17334.23,-82.60
17355.76,-82.84
17377.29,-82.76
17398.83,-82.99
17420.36,-83.23
17441.89,-83.54
17463.43,-83.15
17484.96,-83.07
17506.49,-82.84
17528.03,-82.84
17549.56,-83.07
17571.09,-82.92
17592.63,-82.92
17614.16,-82.84
17635.69,-82.84
17657.23,-82.99
17678.76,-83.15
17700.29,-83.15
17721.83,-82.92
17743.36,-82.92
17764.89,-82.76
17786.43,-82.76
17807.96,-82.84
17829.49,-82.92
17851.03,-83.23
17872.56,-83.46
17894.09,-83.62
17915.63,-83.78
17937.16,-83.78
17958.69,-83.38
17980.22,-83.38
18001.76,-82.84
18023.29,-83.07
18044.82,-83.07
18066.36,-83.15
18087.89,-82.99
18109.42,-82.99
18130.96,-82.84
18152.49,-82.76
18174.02,-82.84
18195.56,-82.76
18217.09,-82.76
18238.62,-82.99
18260.16,-82.84
18281.69,-83.15
18303.22,-82.99
18324.76,-83.07
18346.29,-83.15
18367.82,-83.31
18389.36,-83.31
18410.89,-83.46
18432.42,-83.62
18453.96,-83.38
18475.49,-83.31
18497.02,-83.07
18518.55,-83.23
18540.09,-83.38
18561.62,-83.54
18583.15,-83.46
18604.69,-83.31
18626.22,-83.46
18647.75,-83.38
18669.29,-83.62
18690.82,-83.54
18712.35,-83.54
18733.89,-83.54
18755.42,-83.62
18776.95,-83.62
18798.49,-83.85
18820.02,-84.01
18841.55,-84.01
18863.09,-84.09
18884.62,-84.17
18906.15,-84.01
18927.69,-84.01
18949.22,-84.17
18970.75,-83.85
18992.29,-84.01
19013.82,-83.78
19035.35,-83.93
19056.88,-83.62
19078.42,-83.46
19099.95,-83.23
19121.48,-83.62
19143.02,-83.23
19164.55,-83.31
19186.08,-83.23
19207.62,-83.38
19229.15,-83.62
19250.68,-84.01
19272.22,-84.17
19293.75,-84.32
19315.28,-84.32
19336.82,-84.24
19358.35,-84.48
19379.88,-84.32
19401.42,-84.24
19422.95,-84.24
19444.48,-84.40
19466.02,-84.09
19487.55,-84.17
19509.08,-84.09
19530.62,-84.09
19552.15,-84.24
19573.68,-83.85
19595.21,-83.70
19616.75,-83.93
19638.28,-84.01
19659.81,-84.48
19681.35,-84.48
19702.88,-84.40
19724.41,-84.24
19745.95,-84.09
19767.48,-84.09
19789.01,-84.09
19810.55,-84.40
19832.08,-84.71
19853.61,-84.87
19875.15,-84.95
19896.68,-84.79
19918.21,-84.63
19939.75,-84.63
19961.28,-84.24
19982.81,-84.24
20004.35,-84.09
20025.88,-84.24
20047.41,-84.32
20068.95,-84.32
20090.48,-84.24
20112.01,-84.32
20133.54,-84.32
20155.08,-84.63
20176.61,-84.63
20198.14,-84.95
20219.68,-84.87
20241.21,-85.18
20262.74,-85.18
20284.28,-85.10
20305.81,-85.03
20327.34,-85.26
20348.88,-84.87
20370.41,-84.79
20391.94,-84.48
20413.48,-84.63
20435.01,-84.79
20456.54,-84.87
20478.08,-85.18
20499.61,-84.87
20521.14,-84.79
20542.68,-84.48
20564.21,-84.56
20585.74,-84.56
20607.28,-84.71
20628.81,-85.10
20650.34,-85.10
20671.88,-85.10
20693.41,-85.10
20714.94,-85.18
20736.47,-85.10
20758.01,-84.71
20779.54,-84.71
20801.07,-84.63
20822.61,-84.63
20844.14,-84.95
20865.67,-84.71
20887.21,-84.95
20908.74,-84.63
20930.27,-84.79
20951.81,-84.95
20973.34,-85.03
20994.87,-85.26
21016.41,-85.10
21037.94,-84.79
21059.47,-84.79
21081.01,-84.79
21102.54,-85.34
21124.07,-85.57
21145.61,-86.12
21167.14,-85.65
21188.67,-85.49
21210.21,-85.34
21231.74,-85.34
21253.27,-85.57
21274.80,-85.34
21296.34,-85.49
21317.87,-85.42
21339.40,-85.57
21360.94,-85.57
21382.47,-85.49
21404.00,-85.34
21425.54,-85.18
21447.07,-85.57
21468.60,-85.34
21490.14,-85.65
21511.67,-85.81
21533.20,-85.89
21554.74,-85.81
21576.27,-85.73
21597.80,-85.65
21619.34,-85.73
21640.87,-85.65
21662.40,-85.65
21683.94,-85.57
21705.47,-85.34
21727.00,-85.10
21748.54,-85.10
21770.07,-85.26
21791.60,-85.26
21813.13,-85.65
21834.67,-85.81
21856.20,-85.96
21877.73,-85.89
21899.27,-85.49
21920.80,-85.34
21942.33,-85.18
21963.87,-85.18
21985.40,-85.26
22006.93,-85.42
22028.47,-85.81
22050.00,-86.20
