Frequency (Hz),Power (dB),44100.0000,2048,0,2.0000,0,L+R
0.00,-23.84
21.53,-29.86
43.07,-55.57
64.60,-49.31
86.13,-47.28
107.67,-36.11
129.20,-29.47
150.73,-34.54
172.27,-50.56
193.80,-53.77
215.33,-50.33
236.87,-39.31
258.40,-31.73
279.93,-35.87
301.46,-53.46
323.00,-55.96
344.53,-54.71
366.06,-47.99
387.60,-40.01
409.13,-43.22
430.66,-56.82
452.20,-60.41
473.73,-59.63
495.26,-50.80
516.80,-41.34
538.33,-43.22
559.86,-53.22
581.40,-56.35
602.93,-57.13
624.46,-48.61
646.00,-39.23
667.53,-40.56
689.06,-53.06
710.60,-58.30
732.13,-62.44
753.66,-49.39
775.20,-39.08
796.73,-39.62
818.26,-50.72
839.79,-58.14
861.33,-53.38
882.86,-52.05
904.39,-49.39
925.93,-49.24
947.46,-51.66
968.99,-51.19
990.53,-59.16
1012.06,-51.97
1033.59,-40.25
1055.13,-39.08
1076.66,-48.06
1098.19,-63.07
1119.73,-55.02
1141.26,-51.97
1162.79,-44.47
1184.33,-42.59
1205.86,-51.35
1227.39,-56.82
1248.93,-63.93
1270.46,-60.02
1291.99,-45.64
1313.53,-42.52
1335.06,-50.33
1356.59,-65.33
1378.13,-59.86
1399.66,-56.19
1421.19,-59.24
1442.72,-57.36
1464.26,-57.52
1485.79,-54.08
1507.32,-59.86
1528.86,-63.69
1550.39,-47.83
1571.92,-43.06
1593.46,-49.00
1614.99,-60.18
1636.52,-56.66
1658.06,-52.21
1679.59,-46.66
1701.12,-41.50
1722.66,-47.20
1744.19,-51.66
1765.72,-55.88
1787.26,-63.93
1808.79,-49.47
1830.32,-42.44
1851.86,-46.50
1873.39,-61.82
1894.92,-59.47
1916.46,-53.69
1937.99,-56.89
1959.52,-55.41
1981.05,-58.30
2002.59,-55.02
2024.12,-57.44
2045.65,-63.61
2067.19,-48.61
2088.72,-40.01
2110.25,-43.45
2131.79,-56.66
2153.32,-58.22
2174.85,-55.17
2196.39,-48.38
2217.92,-39.16
2239.45,-41.66
2260.99,-52.67
2282.52,-54.16
2304.05,-60.25
2325.59,-54.78
2347.12,-44.63
2368.65,-45.64
2390.19,-52.67
2411.72,-53.69
2433.25,-54.78
2454.79,-53.61
2476.32,-46.58
2497.85,-47.52
2519.38,-53.85
2540.92,-53.38
2562.45,-61.50
2583.98,-52.91
2605.52,-39.62
2627.05,-39.62
2648.58,-52.36
2670.12,-58.14
2691.65,-58.07
2713.18,-54.16
2734.72,-41.81
2756.25,-40.87
2777.78,-50.56
2799.32,-52.05
2820.85,-59.47
2842.38,-62.36
2863.92,-49.94
2885.45,-47.05
2906.98,-53.30
2928.52,-59.86
2950.05,-57.52
2971.58,-55.33
2993.12,-48.61
3014.65,-46.03
3036.18,-53.30
3057.71,-53.22
3079.25,-58.85
3100.78,-62.83
3122.31,-46.58
3143.85,-42.91
3165.38,-49.86
3186.91,-59.79
3208.45,-60.72
3229.98,-58.77
3251.51,-54.00
3273.05,-50.02
3294.58,-56.82
3316.11,-60.49
3337.65,-64.00
3359.18,-71.12
3380.71,-65.02
3402.25,-60.57
3423.78,-63.77
3445.31,-72.99
3466.85,-71.19
3488.38,-67.91
3509.91,-59.71
3531.45,-53.53
3552.98,-58.69
3574.51,-64.00
3596.04,-67.05
3617.58,-74.87
3639.11,-61.43
3660.64,-54.16
3682.18,-58.53
3703.71,-75.10
3725.24,-77.37
3746.78,-75.57
3768.31,-70.80
3789.84,-63.15
3811.38,-67.21
3832.91,-76.59
3854.44,-78.31
3875.98,-83.54
3897.51,-76.90
3919.04,-67.99
3940.58,-70.80
3962.11,-85.57
3983.64,-84.40
4005.18,-79.63
4026.71,-72.21
4048.24,-61.97
4069.78,-64.00
4091.31,-75.96
4112.84,-75.18
4134.38,-81.12
4155.91,-74.79
4177.44,-63.61
4198.97,-64.47
4220.51,-76.20
4242.04,-84.40
4263.57,-78.31
4285.11,-79.09
4306.64,-76.04
4328.17,-75.18
4349.71,-75.96
4371.24,-74.16
4392.77,-79.79
4414.31,-82.13
4435.84,-69.94
4457.37,-68.85
4478.91,-74.79
4500.44,-76.98
4521.97,-80.02
4543.51,-79.56
4565.04,-70.10
4586.57,-68.62
4608.11,-77.45
4629.64,-76.82
4651.17,-79.87
4672.71,-85.18
4694.24,-71.82
4715.77,-69.87
4737.30,-75.73
4758.84,-87.14
4780.37,-82.84
4801.90,-82.99
4823.44,-88.39
4844.97,-85.81
4866.50,-85.42
4888.04,-82.84
4909.57,-86.12
4931.10,-93.47
4952.64,-78.46
4974.17,-74.63
4995.70,-81.59
5017.24,-91.04
5038.77,-89.17
5060.30,-88.00
5081.84,-78.85
5103.37,-73.93
5124.90,-80.26
5146.44,-82.45
5167.97,-84.32
5189.50,-93.23
5211.04,-83.93
5232.57,-79.09
5254.10,-83.23
5275.63,-89.79
5297.17,-91.43
5318.70,-90.81
5340.23,-90.73
5361.77,-86.28
5383.30,-87.45
5404.83,-85.89
5426.37,-86.04
5447.90,-93.07
5469.43,-84.71
5490.97,-77.91
5512.50,-80.57
5534.03,-88.54
5555.57,-92.37
5577.10,-91.90
5598.63,-88.93
5620.17,-80.73
5641.70,-83.70
5663.23,-90.11
5684.77,-89.87
5706.30,-95.65
5727.83,-95.18
5749.37,-88.93
5770.90,-90.03
5792.43,-94.95
5813.96,-96.90
5835.50,-94.95
5857.03,-95.50
5878.56,-88.62
5900.10,-90.11
5921.63,-93.93
5943.16,-90.81
5964.70,-93.78
5986.23,-93.93
6007.76,-83.78
6029.30,-84.48
6050.83,-91.75
6072.36,-98.39
6093.90,-96.36
6115.43,-96.90
6136.96,-87.84
6158.50,-87.68
6180.03,-95.65
6201.56,-94.09
6223.10,-94.87
6244.63,-99.09
6266.16,-91.36
6287.70,-91.43
6309.23,-93.47
6330.76,-101.05
6352.29,-99.48
6373.83,-100.42
6395.36,-92.53
6416.89,-90.50
6438.43,-98.23
6459.96,-99.25
6481.49,-99.79
6503.03,-103.39
6524.56,-91.20
6546.09,-88.46
6567.63,-96.43
6589.16,-102.37
6610.69,-103.70
6632.23,-105.26
6653.76,-97.53
6675.29,-93.93
6696.83,-100.34
6718.36,-102.53
6739.89,-103.70
6761.43,-109.48
6782.96,-104.09
6804.49,-101.51
6826.03,-103.55
6847.56,-104.87
6869.09,-104.41
6890.63,-105.50
6912.16,-98.47
6933.69,-93.39
6955.22,-99.25
6976.76,-102.84
6998.29,-99.79
7019.82,-104.09
7041.36,-97.29
7062.89,-92.14
7084.42,-95.34
7105.96,-101.36
7127.49,-106.59
7149.02,-107.92
7170.56,-107.22
7192.09,-102.30
7213.62,-105.50
7235.16,-109.17
7256.69,-108.78
7278.22,-110.66
7299.76,-108.00
7321.29,-102.06
7342.82,-104.95
7364.36,-110.03
7385.89,-111.05
7407.42,-112.06
7428.96,-107.06
7450.49,-97.45
7472.02,-99.95
7493.55,-109.41
7515.09,-108.63
7536.62,-112.53
7558.15,-109.72
7579.69,-99.64
7601.22,-101.20
7622.75,-110.42
7644.29,-111.52
7665.82,-114.33
7687.35,-116.52
7708.89,-113.63
7730.42,-114.64
7751.95,-118.08
7773.49,-118.86
7795.02,-118.16
7816.55,-115.19
7838.09,-104.56
7859.62,-104.80
7881.15,-114.64
7902.69,-115.27
7924.22,-117.92
7945.75,-115.74
7967.29,-102.06
7988.82,-101.28
8010.35,-112.69
8031.88,-117.30
8053.42,-116.44
8074.95,-116.52
8096.48,-106.44
8118.02,-104.87
8139.55,-112.84
8161.08,-115.97
8182.62,-118.24
8204.15,-120.35
8225.68,-118.55
8247.22,-115.42
8268.75,-115.58
8290.28,-116.60
8311.82,-116.21
8333.35,-117.22
8354.88,-108.16
8376.42,-104.80
8397.95,-112.53
8419.48,-115.11
8441.02,-115.89
8462.55,-119.41
8484.08,-109.09
8505.62,-104.87
8527.15,-111.52
8548.68,-115.27
8570.21,-111.91
8591.75,-114.49
8613.28,-110.50
8634.81,-108.47
8656.35,-111.52
8677.88,-113.94
8699.41,-116.28
8720.95,-117.46
8742.48,-118.24
8764.01,-113.63
8785.55,-116.21
8807.08,-116.36
8828.61,-112.06
8850.15,-112.84
8871.68,-109.41
8893.21,-105.81
8914.75,-109.56
8936.28,-112.61
8957.81,-118.55
8979.35,-119.41
9000.88,-116.28
9022.41,-109.02
9043.95,-112.69
9065.48,-121.99
9087.01,-120.82
9108.54,-120.42
9130.08,-120.58
9151.61,-117.38
9173.14,-120.97
9194.68,-121.44
9216.21,-123.86
9237.74,-125.19
9259.28,-123.63
9280.81,-114.64
9302.34,-116.60
9323.88,-126.21
9345.41,-126.05
9366.94,-125.82
9388.48,-121.75
9410.01,-111.67
9431.54,-112.77
9453.08,-123.39
9474.61,-124.49
9496.14,-126.05
9517.68,-125.35
9539.21,-115.50
9560.74,-115.81
9582.28,-124.72
9603.81,-124.33
9625.34,-119.88
9646.88,-121.91
9668.41,-118.55
9689.94,-124.25
9711.47,-121.28
9733.01,-124.88
9754.54,-128.00
9776.07,-129.41
9797.61,-117.53
9819.14,-116.21
9840.67,-124.88
9862.21,-127.46
9883.74,-125.11
9905.27,-124.88
9926.81,-116.52
9948.34,-114.72
9969.87,-123.47
9991.41,-127.07
10012.94,-127.30
10034.47,-129.96
10056.01,-123.55
10077.54,-120.58
10099.07,-125.66
10120.61,-126.68
10142.14,-120.74
10163.67,-121.28
10185.21,-118.78
10206.74,-120.27
10228.27,-122.22
10249.80,-122.61
10271.34,-128.32
10292.87,-130.90
10314.40,-122.07
10335.94,-117.46
10357.47,-124.02
10379.00,-133.08
10400.54,-128.55
10422.07,-127.69
10443.60,-122.46
10465.14,-118.39
10486.67,-124.02
10508.20,-129.26
10529.74,-132.93
10551.27,-134.57
10572.80,-131.37
10594.34,-126.99
10615.87,-129.88
10637.40,-131.83
10658.94,-125.35
10680.47,-122.53
10702.00,-122.14
10723.54,-120.74
10745.07,-125.82
10766.60,-125.04
10788.13,-130.11
10809.67,-131.76
10831.20,-128.79
10852.73,-120.58
10874.27,-123.63
10895.80,-133.47
10917.33,-133.40
10938.87,-129.26
10960.40,-128.00
10981.93,-122.61
11003.47,-125.58
11025.00,-131.29
11046.53,-133.63
11068.07,-136.21
11089.60,-137.07
11111.13,-133.63
11132.67,-135.19
11154.20,-137.30
11175.73,-133.79
11197.27,-127.85
11218.80,-127.93
11240.33,-124.18
11261.87,-126.60
11283.40,-130.04
11304.93,-131.83
11326.46,-135.19
11348.00,-135.12
11369.53,-124.88
11391.06,-124.80
11412.60,-135.12
11434.13,-139.34
11455.66,-135.19
11477.20,-134.57
11498.73,-129.10
11520.26,-129.10
11541.80,-136.21
11563.33,-137.23
11584.86,-139.26
11606.40,-140.27
11627.93,-136.84
11649.46,-135.74
11671.00,-141.05
11692.53,-140.27
11714.06,-134.49
11735.60,-132.77
11757.13,-128.63
11778.66,-127.38
11800.20,-134.33
11821.73,-135.43
11843.26,-138.24
11864.79,-139.57
11886.33,-130.35
11907.86,-126.99
11929.39,-134.18
11950.93,-140.04
11972.46,-138.32
11993.99,-136.13
12015.53,-134.65
12037.06,-133.94
12058.59,-138.87
12080.13,-138.87
12101.66,-139.80
12123.19,-141.37
12144.73,-136.52
12166.26,-132.46
12187.79,-137.38
12209.33,-139.88
12230.86,-138.71
12252.39,-139.10
12273.93,-133.79
12295.46,-128.79
12316.99,-133.79
12338.53,-140.43
12360.06,-139.80
12381.59,-141.91
12403.13,-136.76
12424.66,-130.74
12446.19,-134.57
12467.72,-143.24
12489.26,-142.62
12510.79,-139.88
12532.32,-139.34
12553.86,-139.88
12575.39,-143.71
12596.92,-142.23
12618.46,-142.38
12639.99,-143.01
12661.52,-140.12
12683.06,-133.24
12704.59,-135.27
12726.12,-142.38
12747.66,-143.40
12769.19,-140.35
12790.72,-138.01
12812.26,-131.05
12833.79,-133.01
12855.32,-142.07
12876.86,-141.13
12898.39,-142.70
12919.92,-142.85
12941.46,-135.51
12962.99,-135.90
12984.52,-142.31
13006.05,-144.73
13027.59,-140.74
13049.12,-139.34
13070.65,-139.26
13092.19,-142.15
13113.72,-143.48
13135.25,-142.38
13156.79,-143.32
13178.32,-144.02
13199.85,-135.74
13221.39,-134.80
13242.92,-141.99
13264.45,-145.90
13285.99,-142.38
13307.52,-140.66
13329.05,-135.90
13350.59,-134.65
13372.12,-142.15
13393.65,-142.54
13415.19,-143.40
13436.72,-144.96
13458.25,-141.45
13479.79,-139.80
13501.32,-143.32
13522.85,-144.73
13544.38,-143.71
13565.92,-141.60
13587.45,-140.12
13608.98,-140.12
13630.52,-144.34
13652.05,-144.10
13673.58,-144.96
13695.12,-145.82
13716.65,-139.10
13738.18,-135.74
13759.72,-140.66
13781.25,-145.67
13802.78,-144.88
13824.32,-142.31
13845.85,-139.73
13867.38,-137.15
13888.92,-141.84
13910.45,-145.04
13931.98,-145.51
13953.52,-147.07
13975.05,-147.15
13996.58,-145.67
14018.12,-146.21
14039.65,-146.99
14061.18,-147.62
14082.71,-144.10
14104.25,-142.46
14125.78,-140.51
14147.31,-143.01
14168.85,-145.82
14190.38,-145.90
14211.91,-146.37
14233.45,-143.40
14254.98,-138.48
14276.51,-140.98
14298.05,-146.99
14319.58,-147.46
14341.11,-144.57
14362.65,-142.62
14384.18,-140.59
14405.71,-142.70
14427.25,-146.21
14448.78,-146.21
14470.31,-147.31
14491.85,-148.09
14513.38,-147.54
14534.91,-148.01
14556.45,-149.18
14577.98,-149.81
14599.51,-149.03
14621.04,-147.15
14642.58,-142.23
14664.11,-143.09
14685.64,-148.32
14707.18,-148.01
14728.71,-147.93
14750.24,-147.31
14771.78,-141.68
14793.31,-141.76
14814.84,-147.15
14836.38,-148.17
14857.91,-145.98
14879.44,-143.95
14900.98,-143.40
14922.51,-144.81
14944.04,-147.38
14965.58,-146.29
14987.11,-147.07
15008.64,-148.01
15030.18,-146.84
15051.71,-146.60
15073.24,-148.09
15094.78,-148.09
15116.31,-147.93
15137.84,-145.82
15159.38,-143.71
15180.91,-143.16
15202.44,-147.62
15223.97,-147.70
15245.51,-147.46
15267.04,-148.56
15288.57,-144.96
15310.11,-143.87
15331.64,-147.93
15353.17,-150.04
15374.71,-149.26
15396.24,-148.63
15417.77,-148.63
15439.31,-148.56
15460.84,-149.89
15482.37,-150.28
15503.91,-149.96
15525.44,-149.96
15546.97,-148.63
15568.51,-147.07
15590.04,-149.03
15611.57,-150.04
15633.11,-149.42
15654.64,-148.63
15676.17,-146.68
15697.71,-144.18
15719.24,-146.99
15740.77,-148.32
15762.30,-148.79
15783.84,-148.87
15805.37,-147.93
15826.90,-145.90
15848.44,-147.38
15869.97,-149.57
15891.50,-150.28
15913.04,-150.20
15934.57,-149.03
15956.10,-149.49
15977.64,-150.20
15999.17,-149.42
16020.70,-149.65
16042.24,-150.67
16063.77,-149.96
16085.30,-146.60
16106.84,-148.24
16128.37,-151.37
16149.90,-151.45
16171.44,-150.82
16192.97,-149.89
16214.50,-147.38
16236.04,-148.09
16257.57,-149.65
16279.10,-149.89
16300.63,-151.29
16322.17,-150.74
16343.70,-149.10
16365.23,-149.10
16386.77,-150.28
16408.30,-151.06
16429.83,-151.37
16451.37,-149.65
16472.90,-148.95
16494.43,-149.96
16515.97,-150.04
16537.50,-149.73
16559.03,-151.53
16580.57,-151.06
16602.10,-147.85
16623.63,-147.78
16645.17,-150.35
16666.70,-151.29
16688.23,-151.14
16709.77,-149.18
16731.30,-147.93
16752.83,-148.48
16774.37,-151.84
16795.90,-152.00
16817.43,-151.84
16838.96,-152.78
16860.50,-153.01
16882.03,-152.46
16903.56,-153.09
16925.10,-153.71
16946.63,-153.25
16968.16,-151.68
16989.70,-150.59
17011.23,-151.14
17032.76,-152.07
17054.30,-152.00
17075.83,-152.15
17097.36,-153.09
17118.90,-150.74
17140.43,-149.26
17161.96,-151.53
17183.50,-152.31
17205.03,-152.07
17226.56,-150.28
17248.10,-149.03
17269.63,-149.65
17291.16,-151.37
17312.70,-151.76
17334.23,-152.07
17355.76,-152.54
17377.29,-152.39
17398.83,-153.25
17420.36,-153.01
17441.89,-153.25
17463.43,-152.78
17484.96,-152.85
17506.49,-152.31
17528.03,-151.37
17549.56,-152.85
17571.09,-153.64
17592.63,-153.32
17614.16,-154.18
17635.69,-153.79
17657.23,-151.92
17678.76,-153.01
17700.29,-155.12
17721.83,-154.65
17743.36,-154.42
17764.89,-154.03
17786.43,-152.78
17807.96,-152.93
17829.49,-154.42
17851.03,-154.89
17872.56,-154.11
17894.09,-153.56
17915.63,-154.11
17937.16,-153.40
17958.69,-153.25
17980.22,-152.93
18001.76,-152.54
18023.29,-152.31
18044.82,-152.07
18066.36,-152.15
18087.89,-153.95
18109.42,-154.42
18130.96,-154.96
18152.49,-154.34
18174.02,-152.46
18195.56,-152.85
18217.09,-153.95
18238.62,-154.42
18260.16,-154.73
18281.69,-154.18
18303.22,-153.71
18324.76,-154.11
18346.29,-155.43
18367.82,-156.06
18389.36,-155.12
18410.89,-155.51
18432.42,-155.20
18453.96,-155.67
18475.49,-156.37
18497.02,-156.37
18518.55,-155.90
18540.09,-155.36
18561.62,-154.26
18583.15,-154.42
18604.69,-154.96
18626.22,-154.96
18647.75,-155.28
18669.29,-155.04
18690.82,-153.79
18712.35,-153.40
18733.89,-154.18
18755.42,-154.73
18776.95,-154.50
18798.49,-153.95
18820.02,-154.18
18841.55,-154.65
18863.09,-154.11
18884.62,-154.50
18906.15,-155.82
18927.69,-155.28
18949.22,-155.12
18970.75,-155.12
18992.29,-155.75
19013.82,-155.51
19035.35,-155.20
19056.88,-155.67
19078.42,-155.75
19099.95,-155.36
19121.48,-157.15
19143.02,-158.25
19164.55,-157.78
19186.08,-157.78
19207.62,-158.40
19229.15,-156.61
19250.68,-156.21
19272.22,-156.92
19293.75,-158.01
19315.28,-157.23
19336.82,-156.14
19358.35,-156.68
19379.88,-156.76
19401.42,-157.07
19422.95,-156.84
19444.48,-157.00
19466.02,-156.45
19487.55,-155.67
19509.08,-155.67
19530.62,-156.14
19552.15,-156.37
19573.68,-156.45
19595.21,-156.37
19616.75,-155.82
19638.28,-156.37
19659.81,-157.47
19681.35,-157.62
19702.88,-157.78
19724.41,-157.62
19745.95,-157.62
19767.48,-157.39
19789.01,-157.39
19810.55,-157.70
19832.08,-159.03
19853.61,-159.65
19875.15,-159.42
19896.68,-159.18
19918.21,-159.11
19939.75,-159.73
19961.28,-159.73
19982.81,-159.73
20004.35,-159.73
20025.88,-159.73
20047.41,-160.12
20068.95,-159.58
20090.48,-158.64
20112.01,-158.17
20133.54,-157.93
20155.08,-158.64
20176.61,-158.64
20198.14,-159.26
20219.68,-158.64
20241.21,-159.58
20262.74,-159.34
20284.28,-158.40
20305.81,-158.01
20327.34,-157.86
20348.88,-158.64
20370.41,-158.72
20391.94,-158.40
20413.48,-159.11
20435.01,-159.42
20456.54,-160.36
20478.08,-160.90
20499.61,-160.51
20521.14,-160.51
20542.68,-160.43
20564.21,-160.36
20585.74,-160.43
20607.28,-160.90
20628.81,-162.08
20650.34,-162.15
20671.88,-162.70
20693.41,-162.78
20714.94,-162.39
20736.47,-162.15
20758.01,-162.31
20779.54,-160.98
20801.07,-161.53
20822.61,-161.92
20844.14,-161.92
20865.67,-161.92
20887.21,-161.53
20908.74,-161.37
20930.27,-161.22
20951.81,-161.29
20973.34,-161.45
20994.87,-161.92
21016.41,-161.37
21037.94,-161.06
21059.47,-161.29
21081.01,-160.90
21102.54,-161.22
21124.07,-161.61
21145.61,-161.61
21167.14,-161.37
21188.67,-161.53
21210.21,-162.31
21231.74,-163.09
21253.27,-163.48
21274.80,-163.79
21296.34,-163.95
21317.87,-163.72
21339.40,-163.72
21360.94,-163.72
21382.47,-164.26
21404.00,-164.42
21425.54,-165.51
21447.07,-164.89
21468.60,-165.05
21490.14,-165.12
21511.67,-165.44
21533.20,-164.81
21554.74,-164.97
21576.27,-163.87
21597.80,-163.48
21619.34,-163.33
21640.87,-164.50
21662.40,-164.03
21683.94,-163.95
21705.47,-163.79
21727.00,-164.11
21748.54,-164.50
21770.07,-164.26
21791.60,-164.65
21813.13,-164.73
21834.67,-164.89
21856.20,-164.58
21877.73,-163.79
21899.27,-164.11
21920.80,-163.87
21942.33,-165.05
21963.87,-164.89
21985.40,-164.65
22006.93,-164.97
22028.47,-166.37
22050.00,-167.70
