Frequency (Hz),Power (dB),44100.0000,2048,0,2.0000,0,L+R
0.00,-81.59
21.53,-85.89
43.07,-88.31
64.60,-80.81
86.13,-69.63
107.67,-40.41
129.20,-32.90
150.73,-37.51
172.27,-65.57
193.80,-75.65
215.33,-66.66
236.87,-42.67
258.40,-33.76
279.93,-36.97
301.46,-58.07
323.00,-71.35
344.53,-65.65
366.06,-44.16
387.60,-33.92
409.13,-35.87
430.66,-52.91
452.20,-68.15
473.73,-67.44
495.26,-48.30
516.80,-35.95
538.33,-36.19
559.86,-49.39
581.40,-67.13
602.93,-66.66
624.46,-47.28
646.00,-35.64
667.53,-36.03
689.06,-48.30
710.60,-64.40
732.13,-57.36
753.66,-37.98
775.20,-25.56
796.73,-24.62
818.26,-34.54
839.79,-58.30
861.33,-63.38
882.86,-46.81
904.39,-33.45
925.93,-32.36
947.46,-41.34
968.99,-63.15
990.53,-69.71
1012.06,-54.08
1033.59,-40.09
1055.13,-37.28
1076.66,-43.77
1098.19,-63.61
1119.73,-73.77
1141.26,-60.49
1162.79,-45.56
1184.33,-41.81
1205.86,-46.42
1227.39,-62.83
1248.93,-75.57
1270.46,-63.15
1291.99,-47.52
1313.53,-44.63
1335.06,-49.47
1356.59,-63.54
1378.13,-74.55
1399.66,-60.33
1421.19,-43.06
1442.72,-39.86
1464.26,-44.08
1485.79,-56.03
1507.32,-74.40
1528.86,-64.00
1550.39,-46.19
1571.92,-42.05
1593.46,-44.23
1614.99,-54.08
1636.52,-77.05
1658.06,-68.38
1679.59,-50.02
1701.12,-45.17
1722.66,-46.74
1744.19,-55.10
1765.72,-77.52
1787.26,-74.16
1808.79,-53.92
1830.32,-48.38
1851.86,-49.47
1873.39,-56.50
1894.92,-76.12
1916.46,-82.13
1937.99,-63.38
1959.52,-58.07
1981.05,-58.22
2002.59,-63.22
2024.12,-78.31
2045.65,-83.38
2067.19,-62.91
2088.72,-57.52
2110.25,-58.85
2131.79,-63.38
2153.32,-76.12
2174.85,-82.60
2196.39,-60.72
2217.92,-54.71
2239.45,-54.86
2260.99,-57.36
2282.52,-68.22
2304.05,-85.03
2325.59,-65.57
2347.12,-59.39
2368.65,-60.18
2390.19,-62.60
2411.72,-71.12
2433.25,-85.18
2454.79,-63.69
2476.32,-57.28
2497.85,-57.75
2519.38,-59.63
2540.92,-66.74
2562.45,-84.40
2583.98,-65.57
2605.52,-58.22
2627.05,-58.85
2648.58,-59.47
2670.12,-64.63
2691.65,-82.06
2713.18,-69.24
2734.72,-61.89
2756.25,-63.93
2777.78,-68.46
2799.32,-72.68
2820.85,-87.76
2842.38,-77.76
2863.92,-69.71
2885.45,-71.35
2906.98,-74.24
2928.52,-77.13
2950.05,-88.93
2971.58,-79.40
2993.12,-69.79
3014.65,-69.47
3036.18,-69.55
3057.71,-70.65
3079.25,-80.96
3100.78,-80.73
3122.31,-71.19
3143.85,-71.82
3165.38,-76.98
3186.91,-78.70
3208.45,-85.65
3229.98,-79.48
3251.51,-68.15
3273.05,-66.66
3294.58,-69.16
3316.11,-69.94
3337.65,-76.51
3359.18,-85.42
3380.71,-74.63
3402.25,-72.76
3423.78,-73.93
3445.31,-72.84
3466.85,-77.29
3488.38,-83.54
3509.91,-72.91
3531.45,-70.96
3552.98,-74.01
3574.51,-75.88
3596.04,-79.79
3617.58,-89.56
3639.11,-81.98
3660.64,-79.63
3682.18,-83.07
3703.71,-84.95
3725.24,-87.37
3746.78,-94.40
3768.31,-85.81
3789.84,-81.67
3811.38,-82.84
3832.91,-81.59
3854.44,-82.06
3875.98,-89.09
3897.51,-85.03
3919.04,-82.76
3940.58,-86.51
3962.11,-91.36
3983.64,-92.84
4005.18,-95.50
4026.71,-84.95
4048.24,-80.57
4069.78,-81.43
4091.31,-81.35
4112.84,-79.95
4134.38,-85.34
4155.91,-84.09
4177.44,-80.73
4198.97,-83.93
4220.51,-89.71
4242.04,-89.87
4263.57,-93.39
4285.11,-89.64
4306.64,-84.79
4328.17,-85.18
4349.71,-86.67
4371.24,-84.17
4392.77,-86.82
4414.31,-87.21
4435.84,-83.78
4457.37,-84.63
4478.91,-87.60
4500.44,-85.10
4521.97,-87.21
4543.51,-91.12
4565.04,-88.93
4586.57,-89.64
4608.11,-91.43
4629.64,-88.07
4651.17,-88.85
4672.71,-91.82
4694.24,-89.71
4715.77,-90.26
4737.30,-94.95
4758.84,-97.29
4780.37,-99.33
4801.90,-101.20
4823.44,-96.43
4844.97,-94.32
4866.50,-94.48
4888.04,-91.82
4909.57,-89.48
4931.10,-90.26
4952.64,-89.01
4974.17,-90.11
4995.70,-94.72
5017.24,-96.20
5038.77,-95.42
5060.30,-95.97
5081.84,-94.48
5103.37,-94.48
5124.90,-96.75
5146.44,-95.81
5167.97,-92.92
5189.50,-91.90
5211.04,-91.28
5232.57,-92.06
5254.10,-94.32
5275.63,-94.09
5297.17,-91.12
5318.70,-89.25
5340.23,-89.09
5361.77,-91.28
5383.30,-94.79
5404.83,-97.68
5426.37,-96.20
5447.90,-95.81
5469.43,-96.98
5490.97,-98.78
5512.50,-102.61
5534.03,-104.33
5555.57,-104.01
5577.10,-104.17
5598.63,-104.64
5620.17,-103.47
5641.70,-102.84
5663.23,-101.51
5684.77,-96.36
5706.30,-93.00
5727.83,-93.00
5749.37,-95.42
5770.90,-98.62
5792.43,-100.73
5813.96,-98.86
5835.50,-96.51
5857.03,-96.67
5878.56,-99.25
5900.10,-103.16
5921.63,-106.36
5943.16,-103.70
5964.70,-99.40
5986.23,-97.45
6007.76,-99.56
6029.30,-103.78
6050.83,-108.86
6072.36,-105.19
6093.90,-99.48
6115.43,-96.59
6136.96,-97.14
6158.50,-99.87
6180.03,-103.47
6201.56,-102.92
6223.10,-99.72
6244.63,-98.70
6266.16,-101.83
6287.70,-107.45
6309.23,-113.39
6330.76,-111.67
6352.29,-106.75
6373.83,-103.55
6395.36,-104.09
6416.89,-105.89
6438.43,-109.25
6459.96,-106.28
6481.49,-100.73
6503.03,-96.98
6524.56,-97.45
6546.09,-100.81
6567.63,-105.11
6589.16,-105.81
6610.69,-101.75
6632.23,-97.68
6653.76,-98.15
6675.29,-101.20
6696.83,-107.14
6718.36,-109.56
6739.89,-105.66
6761.43,-101.83
6782.96,-101.75
6804.49,-105.97
6826.03,-111.52
6847.56,-117.22
6869.09,-116.13
6890.63,-112.45
6912.16,-110.97
6933.69,-112.45
6955.22,-114.56
6976.76,-116.28
6998.29,-111.67
7019.82,-105.73
7041.36,-104.48
7062.89,-107.61
7084.42,-111.52
7105.96,-115.58
7127.49,-110.50
7149.02,-103.31
7170.56,-101.20
7192.09,-104.01
7213.62,-109.41
7235.16,-113.63
7256.69,-111.59
7278.22,-105.89
7299.76,-103.31
7321.29,-104.33
7342.82,-107.61
7364.36,-112.53
7385.89,-109.09
7407.42,-103.16
7428.96,-101.12
7450.49,-102.61
7472.02,-107.37
7493.55,-113.16
7515.09,-112.61
7536.62,-106.67
7558.15,-103.31
7579.69,-105.34
7601.22,-110.66
7622.75,-115.66
7644.29,-116.83
7665.82,-111.52
7687.35,-108.78
7708.89,-110.42
7730.42,-116.21
7751.95,-123.86
7773.49,-124.41
7795.02,-118.86
7816.55,-115.42
7838.09,-114.88
7859.62,-118.24
7881.15,-122.30
7902.69,-121.60
7924.22,-112.53
7945.75,-106.67
7967.29,-106.44
7988.82,-110.34
8010.35,-117.14
8031.88,-117.46
8053.42,-112.22
8074.95,-108.16
8096.48,-108.70
8118.02,-113.31
8139.55,-118.94
8161.08,-118.94
8182.62,-111.59
8204.15,-105.97
8225.68,-105.34
8247.22,-108.70
8268.75,-115.89
8290.28,-119.10
8311.82,-117.85
8333.35,-112.45
8354.88,-111.13
8376.42,-113.94
8397.95,-119.10
8419.48,-121.28
8441.02,-116.36
8462.55,-109.25
8484.08,-106.98
8505.62,-109.09
8527.15,-115.66
8548.68,-120.35
8570.21,-118.78
8591.75,-114.41
8613.28,-113.08
8634.81,-115.50
8656.35,-121.91
8677.88,-127.46
8699.41,-123.63
8720.95,-117.30
8742.48,-112.92
8764.01,-112.69
8785.55,-117.30
8807.08,-123.24
8828.61,-120.11
8850.15,-115.27
8871.68,-112.14
8893.21,-112.84
8914.75,-118.08
8936.28,-125.74
8957.81,-122.69
8979.35,-116.60
9000.88,-113.08
9022.41,-112.61
9043.95,-116.83
9065.48,-125.27
9087.01,-126.21
9108.54,-123.00
9130.08,-120.66
9151.61,-120.11
9173.14,-122.77
9194.68,-126.52
9216.21,-123.71
9237.74,-117.85
9259.28,-113.24
9280.81,-111.05
9302.34,-113.24
9323.88,-119.96
9345.41,-121.68
9366.94,-117.30
9388.48,-113.94
9410.01,-112.38
9431.54,-114.41
9453.08,-121.83
9474.61,-127.54
9496.14,-123.94
9517.68,-121.36
9539.21,-119.17
9560.74,-120.19
9582.28,-125.66
9603.81,-127.22
9625.34,-123.32
9646.88,-119.02
9668.41,-115.58
9689.94,-115.74
9711.47,-121.28
9733.01,-126.13
9754.54,-122.69
9776.07,-119.80
9797.61,-117.77
9819.14,-118.39
9840.67,-123.32
9862.21,-129.10
9883.74,-128.32
9905.27,-126.99
9926.81,-125.27
9948.34,-124.88
9969.87,-128.55
9991.41,-129.88
10012.94,-124.72
10034.47,-121.05
10056.01,-117.30
10077.54,-115.81
10099.07,-119.57
10120.61,-125.04
10142.14,-122.93
10163.67,-120.50
10185.21,-118.32
10206.74,-116.91
10228.27,-119.41
10249.80,-124.96
10271.34,-124.33
10292.87,-122.46
10314.40,-122.14
10335.94,-121.44
10357.47,-124.41
10379.00,-130.66
10400.54,-132.77
10422.07,-129.72
10443.60,-125.50
10465.14,-121.21
10486.67,-120.97
10508.20,-124.64
10529.74,-125.04
10551.27,-123.55
10572.80,-122.22
10594.34,-120.42
10615.87,-120.74
10637.40,-125.66
10658.94,-128.94
10680.47,-128.40
10702.00,-129.49
10723.54,-128.08
10745.07,-127.77
10766.60,-130.43
10788.13,-130.97
10809.67,-128.63
10831.20,-127.22
10852.73,-124.10
10874.27,-123.47
10895.80,-126.44
10917.33,-128.86
10938.87,-128.16
10960.40,-127.69
10981.93,-127.15
11003.47,-125.74
11025.00,-127.69
11046.53,-129.80
11068.07,-127.38
11089.60,-126.60
11111.13,-125.82
11132.67,-124.72
11154.20,-125.97
11175.73,-127.93
11197.27,-128.00
11218.80,-127.61
11240.33,-126.99
11261.87,-125.35
11283.40,-126.05
11304.93,-128.08
11326.46,-128.32
11348.00,-127.54
11369.53,-126.13
11391.06,-124.72
11412.60,-125.58
11434.13,-128.47
11455.66,-130.66
11477.20,-129.96
11498.73,-129.72
11520.26,-128.71
11541.80,-128.08
11563.33,-129.18
11584.86,-131.44
11606.40,-131.68
11627.93,-131.37
11649.46,-130.04
11671.00,-129.88
11692.53,-131.29
11714.06,-132.93
11735.60,-133.32
11757.13,-132.46
11778.66,-130.90
11800.20,-129.88
11821.73,-130.11
11843.26,-130.90
11864.79,-131.68
11886.33,-131.21
11907.86,-131.29
11929.39,-131.21
11950.93,-130.19
11972.46,-130.11
11993.99,-129.72
12015.53,-129.10
12037.06,-129.10
12058.59,-129.80
12080.13,-129.72
12101.66,-130.43
12123.19,-131.29
12144.73,-130.90
12166.26,-131.13
12187.79,-132.15
12209.33,-132.07
12230.86,-133.08
12252.39,-136.21
12273.93,-135.04
12295.46,-133.94
12316.99,-132.93
12338.53,-131.29
12360.06,-130.43
12381.59,-131.99
12403.13,-133.01
12424.66,-132.54
12446.19,-133.63
12467.72,-134.49
12489.26,-136.05
12510.79,-140.12
12532.32,-141.29
12553.86,-138.09
12575.39,-136.29
12596.92,-134.02
12618.46,-131.76
12639.99,-133.47
12661.52,-135.90
12683.06,-134.41
12704.59,-135.66
12726.12,-135.27
12747.66,-133.55
12769.19,-134.65
12790.72,-136.37
12812.26,-134.33
12833.79,-134.80
12855.32,-134.88
12876.86,-132.46
12898.39,-133.55
12919.92,-136.13
12941.46,-134.49
12962.99,-135.27
12984.52,-135.43
13006.05,-132.54
13027.59,-133.24
13049.12,-136.68
13070.65,-135.90
13092.19,-136.76
13113.72,-136.21
13135.25,-132.62
13156.79,-132.62
13178.32,-135.74
13199.85,-135.58
13221.39,-136.37
13242.92,-137.46
13264.45,-136.29
13285.99,-136.60
13307.52,-141.91
13329.05,-146.60
13350.59,-146.13
13372.12,-144.34
13393.65,-139.34
13415.19,-136.91
13436.72,-138.87
13458.25,-139.80
13479.79,-139.26
13501.32,-139.10
13522.85,-137.15
13544.38,-135.66
13565.92,-138.71
13587.45,-141.05
13608.98,-141.21
13630.52,-141.21
13652.05,-139.34
13673.58,-137.54
13695.12,-138.63
13716.65,-140.59
13738.18,-140.27
13759.72,-139.88
13781.25,-137.30
13802.78,-133.63
13824.32,-133.79
13845.85,-135.74
13867.38,-136.60
13888.92,-137.30
13910.45,-136.91
13931.98,-134.18
13953.52,-134.73
13975.05,-138.01
13996.58,-140.51
14018.12,-141.84
14039.65,-142.70
14061.18,-140.43
14082.71,-140.90
14104.25,-143.87
14125.78,-147.54
14147.31,-148.32
14168.85,-147.46
14190.38,-144.96
14211.91,-144.18
14233.45,-145.20
14254.98,-146.68
14276.51,-147.78
14298.05,-148.17
14319.58,-144.42
14341.11,-143.01
14362.65,-144.10
14384.18,-146.92
14405.71,-147.15
14427.25,-146.68
14448.78,-143.95
14470.31,-142.70
14491.85,-144.49
14513.38,-147.78
14534.91,-149.03
14556.45,-146.21
14577.98,-140.51
14599.51,-136.44
14621.04,-135.19
14642.58,-136.68
14664.11,-139.02
14685.64,-138.55
14707.18,-137.23
14728.71,-135.12
14750.24,-134.88
14771.78,-138.32
14793.31,-144.18
14814.84,-146.99
14836.38,-147.07
14857.91,-146.76
14879.44,-146.13
14900.98,-147.93
14922.51,-151.53
14944.04,-152.31
14965.58,-149.65
14987.11,-147.46
15008.64,-145.98
15030.18,-146.53
15051.71,-149.49
15073.24,-149.73
15094.78,-148.17
15116.31,-147.07
15137.84,-146.99
15159.38,-147.62
15180.91,-151.53
15202.44,-151.76
15223.97,-149.34
15245.51,-147.31
15267.04,-145.82
15288.57,-145.98
15310.11,-150.04
15331.64,-152.15
15353.17,-149.26
15374.71,-145.43
15396.24,-140.90
15417.77,-138.24
15439.31,-140.90
15460.84,-143.56
15482.37,-141.29
15503.91,-139.26
15525.44,-137.85
15546.97,-136.76
15568.51,-140.12
15590.04,-145.98
15611.57,-146.68
15633.11,-146.13
15654.64,-145.12
15676.17,-143.56
15697.71,-145.82
15719.24,-150.98
15740.77,-152.00
15762.30,-149.65
15783.84,-148.24
15805.37,-146.13
15826.90,-146.99
15848.44,-149.96
15869.97,-148.87
15891.50,-145.43
15913.04,-144.18
15934.57,-143.01
15956.10,-143.87
15977.64,-148.79
15999.17,-151.29
16020.70,-149.65
16042.24,-149.34
16063.77,-148.32
16085.30,-148.48
16106.84,-151.92
16128.37,-154.50
16149.90,-151.68
16171.44,-149.18
16192.97,-145.59
16214.50,-143.56
16236.04,-146.29
16257.57,-148.63
16279.10,-145.59
16300.63,-144.42
16322.17,-143.71
16343.70,-141.29
16365.23,-144.34
16386.77,-150.67
16408.30,-149.18
16429.83,-147.78
16451.37,-146.53
16472.90,-143.48
16494.43,-144.49
16515.97,-148.32
16537.50,-146.99
16559.03,-145.20
16580.57,-146.06
16602.10,-144.88
16623.63,-146.13
16645.17,-150.59
16666.70,-148.56
16688.23,-145.12
16709.77,-144.73
16731.30,-141.84
16752.83,-141.29
16774.37,-145.90
16795.90,-147.70
16817.43,-145.27
16838.96,-146.76
16860.50,-147.31
16882.03,-146.37
16903.56,-149.42
16925.10,-151.14
16946.63,-148.40
16968.16,-149.03
16989.70,-150.35
17011.23,-148.32
17032.76,-149.96
17054.30,-152.00
17075.83,-148.48
17097.36,-148.40
17118.90,-149.89
17140.43,-147.62
17161.96,-149.03
17183.50,-153.17
17205.03,-151.14
17226.56,-151.06
17248.10,-152.00
17269.63,-147.23
17291.16,-146.92
17312.70,-149.42
17334.23,-146.92
17355.76,-146.06
17377.29,-149.42
17398.83,-146.53
17420.36,-146.29
17441.89,-150.35
17463.43,-150.82
17484.96,-150.20
17506.49,-152.07
17528.03,-146.37
17549.56,-144.42
17571.09,-147.38
17592.63,-146.92
17614.16,-145.35
17635.69,-149.03
17657.23,-145.82
17678.76,-142.93
17700.29,-145.43
17721.83,-145.43
17743.36,-143.71
17764.89,-147.85
17786.43,-149.81
17807.96,-146.60
17829.49,-148.87
17851.03,-150.51
17872.56,-147.62
17894.09,-150.98
17915.63,-149.18
17937.16,-143.40
17958.69,-144.88
17980.22,-148.17
18001.76,-146.84
18023.29,-150.59
18044.82,-155.43
18066.36,-149.34
18087.89,-149.18
18109.42,-151.06
18130.96,-148.95
18152.49,-151.92
18174.02,-156.53
18195.56,-148.95
18217.09,-147.62
18238.62,-150.90
18260.16,-151.60
18281.69,-154.89
18303.22,-159.81
18324.76,-150.20
18346.29,-147.54
18367.82,-149.42
18389.36,-149.26
18410.89,-152.15
18432.42,-157.78
18453.96,-146.29
18475.49,-142.07
18497.02,-143.56
18518.55,-143.09
18540.09,-145.74
18561.62,-155.43
18583.15,-146.37
18604.69,-141.60
18626.22,-144.26
18647.75,-147.62
18669.29,-150.98
18690.82,-160.12
18712.35,-149.96
18733.89,-142.54
18755.42,-142.15
18776.95,-142.93
18798.49,-146.13
18820.02,-157.62
18841.55,-154.03
18863.09,-145.98
18884.62,-145.51
18906.15,-146.68
18927.69,-149.10
18949.22,-159.03
18970.75,-156.68
18992.29,-147.07
19013.82,-146.29
19035.35,-148.48
19056.88,-151.14
19078.42,-160.90
19099.95,-161.06
19121.48,-149.49
19143.02,-147.38
19164.55,-148.71
19186.08,-151.14
19207.62,-159.81
19229.15,-162.70
19250.68,-148.01
19272.22,-144.02
19293.75,-144.18
19315.28,-146.60
19336.82,-155.12
19358.35,-163.79
19379.88,-146.99
19401.42,-142.31
19422.95,-142.85
19444.48,-146.21
19466.02,-155.04
19487.55,-168.25
19509.08,-147.93
19530.62,-140.82
19552.15,-139.96
19573.68,-142.54
19595.21,-150.90
19616.75,-167.31
19638.28,-151.06
19659.81,-141.99
19681.35,-140.27
19702.88,-143.63
19724.41,-152.54
19745.95,-168.41
19767.48,-153.64
19789.01,-143.01
19810.55,-140.98
19832.08,-144.10
19853.61,-152.07
19875.15,-169.50
19896.68,-160.51
19918.21,-147.46
19939.75,-143.87
19961.28,-146.60
19982.81,-155.04
20004.35,-171.30
20025.88,-165.36
20047.41,-149.34
20068.95,-144.34
20090.48,-146.29
20112.01,-154.34
20133.54,-172.31
20155.08,-170.52
20176.61,-150.28
20198.14,-143.24
20219.68,-144.10
20241.21,-152.31
20262.74,-171.45
20284.28,-173.02
20305.81,-150.51
20327.34,-141.29
20348.88,-140.90
20370.41,-148.95
20391.94,-169.11
20413.48,-172.23
20435.01,-149.34
20456.54,-139.49
20478.08,-138.71
20499.61,-146.53
20521.14,-164.58
20542.68,-168.72
20564.21,-150.04
20585.74,-138.09
20607.28,-136.29
20628.81,-143.79
20650.34,-161.61
20671.88,-168.95
20693.41,-154.34
20714.94,-139.88
20736.47,-136.84
20758.01,-143.40
20779.54,-160.67
20801.07,-169.89
20822.61,-158.64
20844.14,-141.45
20865.67,-136.91
20887.21,-142.38
20908.74,-159.34
20930.27,-170.91
20951.81,-163.17
20973.34,-142.85
20994.87,-137.15
21016.41,-141.84
21037.94,-159.11
21059.47,-173.17
21081.01,-168.95
21102.54,-144.34
21124.07,-136.84
21145.61,-140.35
21167.14,-157.62
21188.67,-173.02
21210.21,-170.12
21231.74,-144.81
21253.27,-135.35
21274.80,-137.54
21296.34,-153.87
21317.87,-170.20
21339.40,-167.39
21360.94,-146.53
21382.47,-135.19
21404.00,-136.21
21425.54,-150.90
21447.07,-168.72
21468.60,-168.56
21490.14,-151.45
21511.67,-137.30
21533.20,-136.84
21554.74,-149.42
21576.27,-168.41
21597.80,-171.77
21619.34,-157.31
21640.87,-140.20
21662.40,-138.48
21683.94,-149.26
21705.47,-170.12
21727.00,-176.45
21748.54,-164.50
21770.07,-143.40
21791.60,-140.27
21813.13,-149.42
21834.67,-173.17
21856.20,-180.67
21877.73,-173.33
21899.27,-145.90
21920.80,-141.37
21942.33,-148.87
21963.87,-177.70
21985.40,-184.82
22006.93,-186.38
22028.47,-182.00
22050.00,-177.00
