Frequency (Hz),Power (dB),44100.0000,2048,0,2.0000,0,L+R
0.00,-72.44
21.53,-65.41
43.07,-30.01
64.60,-23.45
86.13,-28.84
107.67,-34.08
129.20,-27.20
150.73,-32.20
172.27,-41.66
193.80,-34.00
215.33,-38.30
236.87,-41.58
258.40,-33.76
279.93,-37.36
301.46,-47.05
323.00,-38.53
344.53,-41.50
366.06,-45.33
387.60,-37.67
409.13,-40.17
430.66,-50.02
452.20,-41.66
473.73,-43.53
495.26,-47.75
516.80,-40.17
538.33,-41.34
559.86,-50.49
581.40,-43.45
602.93,-44.23
624.46,-49.47
646.00,-41.89
667.53,-41.89
689.06,-49.86
710.60,-45.09
732.13,-45.17
753.66,-49.31
775.20,-43.22
796.73,-43.53
818.26,-50.33
839.79,-44.00
861.33,-43.84
882.86,-50.02
904.39,-44.86
925.93,-44.47
947.46,-49.39
968.99,-47.83
990.53,-46.58
1012.06,-49.55
1033.59,-46.27
1055.13,-45.41
1076.66,-49.39
1098.19,-50.25
1119.73,-48.22
1141.26,-49.39
1162.79,-45.88
1184.33,-44.55
1205.86,-46.81
1227.39,-48.77
1248.93,-46.81
1270.46,-48.53
1291.99,-47.05
1313.53,-46.81
1335.06,-48.38
1356.59,-50.41
1378.13,-48.61
1399.66,-49.78
1421.19,-47.13
1442.72,-46.66
1464.26,-47.05
1485.79,-47.99
1507.32,-46.19
1528.86,-49.24
1550.39,-47.52
1571.92,-47.52
1593.46,-48.45
1614.99,-50.17
1636.52,-48.77
1658.06,-51.11
1679.59,-48.14
1701.12,-46.74
1722.66,-46.03
1744.19,-48.22
1765.72,-48.53
1787.26,-48.84
1808.79,-46.89
1830.32,-46.97
1851.86,-47.75
1873.39,-47.59
1894.92,-47.20
1916.46,-48.92
1937.99,-46.97
1959.52,-46.74
1981.05,-46.89
2002.59,-47.13
2024.12,-46.74
2045.65,-48.06
2067.19,-47.05
2088.72,-46.97
2110.25,-46.74
2131.79,-48.14
2153.32,-45.02
2174.85,-45.80
2196.39,-45.80
2217.92,-47.05
2239.45,-46.66
2260.99,-46.03
2282.52,-46.42
2304.05,-47.59
2325.59,-45.72
2347.12,-45.72
2368.65,-46.74
2390.19,-46.11
2411.72,-46.74
2433.25,-47.99
2454.79,-46.81
2476.32,-45.64
2497.85,-46.03
2519.38,-46.50
2540.92,-44.78
2562.45,-45.56
2583.98,-46.34
2605.52,-46.27
2627.05,-46.42
2648.58,-46.11
2670.12,-44.31
2691.65,-44.31
2713.18,-45.95
2734.72,-45.09
2756.25,-45.17
2777.78,-44.47
2799.32,-44.94
2820.85,-45.80
2842.38,-47.20
2863.92,-47.44
2885.45,-47.91
2906.98,-47.05
2928.52,-44.94
2950.05,-44.23
2971.58,-45.48
2993.12,-45.41
3014.65,-46.03
3036.18,-47.13
3057.71,-45.48
3079.25,-43.84
3100.78,-45.88
3122.31,-48.06
3143.85,-48.06
3165.38,-47.20
3186.91,-45.48
3208.45,-43.22
3229.98,-44.16
3251.51,-46.03
3273.05,-47.20
3294.58,-45.64
3316.11,-45.17
3337.65,-42.91
3359.18,-45.25
3380.71,-46.97
3402.25,-47.28
3423.78,-47.13
3445.31,-45.88
3466.85,-44.23
3488.38,-45.95
3509.91,-46.97
3531.45,-48.14
3552.98,-47.59
3574.51,-46.66
3596.04,-43.77
3617.58,-46.11
3639.11,-47.67
3660.64,-47.05
3682.18,-47.05
3703.71,-46.74
3725.24,-43.45
3746.78,-44.86
3768.31,-47.28
3789.84,-48.06
3811.38,-47.36
3832.91,-45.95
3854.44,-43.92
3875.98,-44.78
3897.51,-47.44
3919.04,-49.16
3940.58,-47.59
3962.11,-46.42
3983.64,-42.98
4005.18,-44.16
4026.71,-48.22
4048.24,-49.94
4069.78,-48.77
4091.31,-47.67
4112.84,-44.63
4134.38,-44.63
4155.91,-46.58
4177.44,-48.22
4198.97,-48.53
4220.51,-48.06
4242.04,-45.80
4263.57,-45.25
4285.11,-47.91
4306.64,-49.70
4328.17,-49.08
4349.71,-47.91
4371.24,-45.95
4392.77,-46.50
4414.31,-48.14
4435.84,-49.24
4457.37,-47.99
4478.91,-46.50
4500.44,-45.48
4521.97,-45.25
4543.51,-47.44
4565.04,-49.16
4586.57,-49.16
4608.11,-48.22
4629.64,-46.50
4651.17,-45.72
4672.71,-48.14
4694.24,-50.64
4715.77,-50.49
4737.30,-48.77
4758.84,-47.13
4780.37,-46.34
4801.90,-47.52
4823.44,-50.02
4844.97,-50.33
4866.50,-50.02
4888.04,-48.22
4909.57,-46.42
4931.10,-48.69
4952.64,-50.95
4974.17,-50.41
4995.70,-49.39
5017.24,-48.45
5038.77,-46.74
5060.30,-48.38
5081.84,-51.19
5103.37,-52.52
5124.90,-49.70
5146.44,-48.45
5167.97,-46.81
5189.50,-48.53
5211.04,-49.86
5232.57,-52.13
5254.10,-50.33
5275.63,-49.55
5297.17,-47.13
5318.70,-48.53
5340.23,-50.49
5361.77,-52.21
5383.30,-51.03
5404.83,-50.41
5426.37,-49.00
5447.90,-50.10
5469.43,-49.55
5490.97,-50.72
5512.50,-50.95
5534.03,-51.19
5555.57,-49.86
5577.10,-50.56
5598.63,-51.58
5620.17,-51.58
5641.70,-51.66
5663.23,-51.97
5684.77,-49.31
5706.30,-50.10
5727.83,-50.33
5749.37,-52.44
5770.90,-51.89
5792.43,-51.89
5813.96,-49.63
5835.50,-50.80
5857.03,-52.91
5878.56,-53.92
5900.10,-53.69
5921.63,-53.69
5943.16,-50.80
5964.70,-50.02
5986.23,-51.27
6007.76,-53.30
6029.30,-54.47
6050.83,-54.00
6072.36,-51.03
6093.90,-50.80
6115.43,-53.06
6136.96,-53.69
6158.50,-53.06
6180.03,-53.30
6201.56,-52.91
6223.10,-52.05
6244.63,-53.61
6266.16,-53.61
6287.70,-54.24
6309.23,-54.78
6330.76,-52.28
6352.29,-51.66
6373.83,-54.39
6395.36,-54.71
6416.89,-54.16
6438.43,-55.33
6459.96,-53.38
6481.49,-52.13
6503.03,-54.71
6524.56,-55.17
6546.09,-54.71
6567.63,-56.50
6589.16,-55.72
6610.69,-53.77
6632.23,-55.88
6653.76,-56.50
6675.29,-54.47
6696.83,-56.58
6718.36,-55.49
6739.89,-54.24
6761.43,-55.64
6782.96,-57.05
6804.49,-55.88
6826.03,-58.07
6847.56,-56.74
6869.09,-56.42
6890.63,-57.21
6912.16,-56.89
6933.69,-55.41
6955.22,-57.91
6976.76,-57.44
6998.29,-55.49
7019.82,-56.74
7041.36,-59.32
7062.89,-57.36
7084.42,-59.16
7105.96,-57.52
7127.49,-54.94
7149.02,-56.19
7170.56,-58.77
7192.09,-55.72
7213.62,-59.47
7235.16,-58.77
7256.69,-57.91
7278.22,-57.68
7299.76,-58.30
7321.29,-57.05
7342.82,-58.53
7364.36,-58.53
7385.89,-58.38
7407.42,-58.07
7428.96,-58.69
7450.49,-55.80
7472.02,-58.14
7493.55,-61.43
7515.09,-59.55
7536.62,-59.86
7558.15,-60.88
7579.69,-58.46
7601.22,-58.85
7622.75,-59.79
7644.29,-58.38
7665.82,-57.68
7687.35,-58.77
7708.89,-60.02
7730.42,-60.18
7751.95,-60.57
7773.49,-59.32
7795.02,-58.69
7816.55,-60.25
7838.09,-61.58
7859.62,-61.11
7881.15,-59.79
7902.69,-60.25
7924.22,-60.49
7945.75,-60.88
7967.29,-61.82
7988.82,-60.80
8010.35,-60.64
8031.88,-60.72
8053.42,-60.64
8074.95,-61.04
8096.48,-61.58
8118.02,-62.29
8139.55,-62.60
8161.08,-61.35
8182.62,-61.19
8204.15,-61.74
8225.68,-61.66
8247.22,-62.21
8268.75,-60.96
8290.28,-60.88
8311.82,-60.18
8333.35,-61.27
8354.88,-61.19
8376.42,-62.60
8397.95,-62.60
8419.48,-61.97
8441.02,-60.33
8462.55,-61.97
8484.08,-61.97
8505.62,-63.85
8527.15,-62.36
8548.68,-61.66
8570.21,-61.82
8591.75,-62.75
8613.28,-63.07
8634.81,-64.00
8656.35,-63.22
8677.88,-63.07
8699.41,-62.60
8720.95,-63.61
8742.48,-63.61
8764.01,-65.18
8785.55,-63.93
8807.08,-62.91
8828.61,-62.36
8850.15,-63.54
8871.68,-63.07
8893.21,-65.65
8914.75,-64.79
8936.28,-64.00
8957.81,-61.82
8979.35,-63.46
9000.88,-64.71
9022.41,-66.27
9043.95,-65.10
9065.48,-64.55
9087.01,-63.22
9108.54,-64.63
9130.08,-65.18
9151.61,-65.26
9173.14,-65.65
9194.68,-64.86
9216.21,-63.77
9237.74,-64.55
9259.28,-66.11
9280.81,-65.65
9302.34,-65.65
9323.88,-66.35
9345.41,-64.32
9366.94,-64.55
9388.48,-65.96
9410.01,-65.72
9431.54,-66.43
9453.08,-66.97
9474.61,-64.00
9496.14,-64.16
9517.68,-66.97
9539.21,-67.05
9560.74,-67.99
9582.28,-68.22
9603.81,-64.94
9625.34,-64.40
9646.88,-67.60
9668.41,-68.30
9689.94,-67.13
9711.47,-67.76
9733.01,-65.65
9754.54,-65.41
9776.07,-68.54
9797.61,-69.16
9819.14,-67.76
9840.67,-68.77
9862.21,-66.74
9883.74,-65.72
9905.27,-69.24
9926.81,-69.16
9948.34,-68.22
9969.87,-68.93
9991.41,-66.90
10012.94,-66.04
10034.47,-69.24
10056.01,-69.63
10077.54,-68.15
10099.07,-69.01
10120.61,-67.76
10142.14,-65.49
10163.67,-69.08
10185.21,-70.26
10206.74,-68.38
10228.27,-69.71
10249.80,-68.62
10271.34,-65.80
10292.87,-69.16
10314.40,-71.04
10335.94,-68.62
10357.47,-69.08
10379.00,-70.02
10400.54,-66.58
10422.07,-68.85
10443.60,-70.33
10465.14,-67.60
10486.67,-69.94
10508.20,-70.49
10529.74,-67.05
10551.27,-69.55
10572.80,-72.37
10594.34,-69.87
10615.87,-70.80
10637.40,-70.57
10658.94,-66.90
10680.47,-68.30
10702.00,-71.12
10723.54,-71.66
10745.07,-71.58
10766.60,-72.21
10788.13,-67.91
10809.67,-69.47
10831.20,-72.52
10852.73,-72.37
10874.27,-71.27
10895.80,-71.58
10917.33,-68.85
10938.87,-70.02
10960.40,-71.98
10981.93,-71.82
11003.47,-71.82
11025.00,-72.05
11046.53,-69.79
11068.07,-70.57
11089.60,-72.05
11111.13,-71.19
11132.67,-71.98
11154.20,-72.99
11175.73,-70.18
11197.27,-70.41
11218.80,-72.99
11240.33,-71.90
11261.87,-71.90
11283.40,-72.68
11304.93,-70.88
11326.46,-71.35
11348.00,-73.15
11369.53,-73.38
11391.06,-73.69
11412.60,-73.54
11434.13,-70.49
11455.66,-70.65
11477.20,-73.46
11498.73,-73.38
11520.26,-73.15
11541.80,-73.38
11563.33,-71.74
11584.86,-71.82
11606.40,-73.54
11627.93,-73.54
11649.46,-73.62
11671.00,-73.69
11692.53,-72.21
11714.06,-71.82
11735.60,-74.01
11757.13,-74.63
11778.66,-74.63
11800.20,-75.26
11821.73,-73.46
11843.26,-72.44
11864.79,-73.93
11886.33,-74.95
11907.86,-74.87
11929.39,-75.34
11950.93,-73.69
11972.46,-71.82
11993.99,-73.54
12015.53,-75.10
12037.06,-74.95
12058.59,-74.95
12080.13,-75.10
12101.66,-73.07
12123.19,-74.87
12144.73,-76.12
12166.26,-75.10
12187.79,-75.10
12209.33,-74.40
12230.86,-73.07
12252.39,-75.49
12273.93,-76.27
12295.46,-74.87
12316.99,-75.34
12338.53,-75.34
12360.06,-74.32
12381.59,-75.65
12403.13,-76.82
12424.66,-76.04
12446.19,-75.18
12467.72,-75.10
12489.26,-74.55
12510.79,-75.96
12532.32,-76.66
12553.86,-77.45
12575.39,-76.66
12596.92,-76.74
12618.46,-75.02
12639.99,-75.57
12661.52,-76.82
12683.06,-77.52
12704.59,-76.74
12726.12,-77.21
12747.66,-75.49
12769.19,-76.35
12790.72,-76.98
12812.26,-78.07
12833.79,-76.98
12855.32,-76.66
12876.86,-76.66
12898.39,-77.13
12919.92,-78.93
12941.46,-79.32
12962.99,-78.38
12984.52,-78.77
13006.05,-77.37
13027.59,-76.82
13049.12,-78.15
13070.65,-78.70
13092.19,-78.23
13113.72,-78.31
13135.25,-76.98
13156.79,-76.82
13178.32,-78.62
13199.85,-79.24
13221.39,-78.46
13242.92,-78.07
13264.45,-77.84
13285.99,-76.90
13307.52,-78.70
13329.05,-79.32
13350.59,-78.07
13372.12,-78.15
13393.65,-77.21
13415.19,-76.66
13436.72,-79.24
13458.25,-79.32
13479.79,-78.54
13501.32,-79.01
13522.85,-79.09
13544.38,-79.01
13565.92,-78.93
13587.45,-79.24
13608.98,-78.77
13630.52,-79.71
13652.05,-79.63
13673.58,-79.01
13695.12,-79.40
13716.65,-79.48
13738.18,-79.56
13759.72,-79.40
13781.25,-79.16
13802.78,-79.71
13824.32,-80.02
13845.85,-80.34
13867.38,-80.02
13888.92,-80.65
13910.45,-80.02
13931.98,-79.09
13953.52,-80.34
13975.05,-80.02
13996.58,-79.32
14018.12,-80.42
14039.65,-79.40
14061.18,-79.40
14082.71,-80.57
14104.25,-81.51
14125.78,-80.34
14147.31,-81.27
14168.85,-81.04
14190.38,-80.18
14211.91,-80.10
14233.45,-80.88
14254.98,-79.09
14276.51,-80.65
14298.05,-80.34
14319.58,-80.26
14341.11,-80.88
14362.65,-82.60
14384.18,-80.34
14405.71,-82.45
14427.25,-82.29
14448.78,-81.98
14470.31,-83.23
14491.85,-83.38
14513.38,-81.90
14534.91,-82.99
14556.45,-81.59
14577.98,-80.42
14599.51,-81.27
14621.04,-82.60
14642.58,-81.12
14664.11,-82.99
14685.64,-82.06
14707.18,-81.90
14728.71,-83.07
14750.24,-83.07
14771.78,-82.92
14793.31,-83.46
14814.84,-83.38
14836.38,-81.98
14857.91,-82.92
14879.44,-83.78
14900.98,-82.76
14922.51,-82.92
14944.04,-83.07
14965.58,-81.74
14987.11,-81.35
15008.64,-83.07
15030.18,-83.31
15051.71,-83.15
15073.24,-84.71
15094.78,-83.23
15116.31,-83.46
15137.84,-84.24
15159.38,-83.54
15180.91,-83.07
15202.44,-83.62
15223.97,-82.99
15245.51,-82.60
15267.04,-84.56
15288.57,-84.40
15310.11,-84.48
15331.64,-84.95
15353.17,-84.24
15374.71,-84.17
15396.24,-85.42
15417.77,-84.01
15439.31,-83.85
15460.84,-84.01
15482.37,-84.56
15503.91,-83.54
15525.44,-85.10
15546.97,-85.10
15568.51,-85.65
15590.04,-85.26
15611.57,-84.09
15633.11,-83.15
15654.64,-84.63
15676.17,-85.73
15697.71,-86.98
15719.24,-85.26
15740.77,-84.87
15762.30,-82.99
15783.84,-84.24
15805.37,-85.49
15826.90,-86.82
15848.44,-85.73
15869.97,-84.95
15891.50,-84.17
15913.04,-85.49
15934.57,-86.35
15956.10,-86.74
15977.64,-86.04
15999.17,-85.18
16020.70,-85.57
16042.24,-87.06
16063.77,-86.51
16085.30,-86.51
16106.84,-86.51
16128.37,-86.04
16149.90,-85.34
16171.44,-86.51
16192.97,-86.82
16214.50,-87.37
16236.04,-87.21
16257.57,-86.59
16279.10,-86.20
16300.63,-86.82
16322.17,-87.53
16343.70,-88.31
16365.23,-87.53
16386.77,-86.12
16408.30,-86.43
16429.83,-86.90
16451.37,-88.15
16472.90,-88.54
16494.43,-88.23
16515.97,-87.37
16537.50,-85.42
16559.03,-85.49
16580.57,-87.68
16602.10,-88.85
16623.63,-89.25
16645.17,-87.84
16666.70,-87.21
16688.23,-87.06
16709.77,-88.15
16731.30,-89.48
16752.83,-89.01
16774.37,-87.92
16795.90,-88.07
16817.43,-87.37
16838.96,-88.31
16860.50,-89.32
16882.03,-89.87
16903.56,-89.17
16925.10,-86.98
16946.63,-86.67
16968.16,-88.54
16989.70,-89.95
17011.23,-90.34
17032.76,-89.87
17054.30,-88.15
17075.83,-87.21
17097.36,-89.09
17118.90,-88.85
17140.43,-88.31
17161.96,-88.23
17183.50,-88.54
17205.03,-88.15
17226.56,-89.17
17248.10,-88.93
17269.63,-88.78
17291.16,-89.71
17312.70,-89.56
17334.23,-89.09
17355.76,-89.48
17377.29,-89.64
17398.83,-89.71
17420.36,-90.18
17441.89,-88.78
17463.43,-87.68
17484.96,-89.56
17506.49,-90.73
17528.03,-92.29
17549.56,-91.04
17571.09,-89.64
17592.63,-88.54
17614.16,-90.26
17635.69,-91.36
17657.23,-91.67
17678.76,-91.36
17700.29,-90.57
17721.83,-89.17
17743.36,-90.11
17764.89,-90.65
17786.43,-91.04
17807.96,-91.75
17829.49,-91.90
17851.03,-89.64
17872.56,-90.50
17894.09,-90.57
17915.63,-91.04
17937.16,-91.04
17958.69,-90.57
17980.22,-89.56
18001.76,-90.18
18023.29,-90.73
18044.82,-90.73
18066.36,-90.81
18087.89,-91.67
18109.42,-90.26
18130.96,-91.20
18152.49,-91.90
18174.02,-91.28
18195.56,-90.96
18217.09,-91.90
18238.62,-91.59
18260.16,-90.73
18281.69,-91.98
18303.22,-92.45
18324.76,-91.67
18346.29,-91.59
18367.82,-91.67
18389.36,-92.06
18410.89,-92.29
18432.42,-92.53
18453.96,-93.54
18475.49,-92.84
18497.02,-91.98
18518.55,-92.68
18540.09,-92.29
18561.62,-92.84
18583.15,-93.62
18604.69,-93.15
18626.22,-92.06
18647.75,-92.45
18669.29,-93.23
18690.82,-93.86
18712.35,-95.26
18733.89,-93.47
18755.42,-91.67
18776.95,-91.59
18798.49,-93.00
18820.02,-93.31
18841.55,-94.17
18863.09,-94.40
18884.62,-93.39
18906.15,-92.21
18927.69,-92.84
18949.22,-93.54
18970.75,-93.78
18992.29,-94.79
19013.82,-93.70
19035.35,-93.00
19056.88,-94.32
19078.42,-94.01
19099.95,-93.70
19121.48,-94.56
19143.02,-95.11
19164.55,-94.95
19186.08,-94.48
19207.62,-94.25
19229.15,-93.62
19250.68,-94.32
19272.22,-95.58
19293.75,-94.87
19315.28,-95.89
19336.82,-94.25
19358.35,-93.86
19379.88,-94.56
19401.42,-95.11
19422.95,-95.65
19444.48,-95.42
19466.02,-95.11
19487.55,-95.89
19509.08,-95.65
19530.62,-96.36
19552.15,-95.34
19573.68,-95.89
19595.21,-96.12
19616.75,-96.20
19638.28,-95.89
19659.81,-96.43
19681.35,-96.04
19702.88,-96.20
19724.41,-95.97
19745.95,-95.89
19767.48,-96.20
19789.01,-97.14
19810.55,-97.61
19832.08,-97.53
19853.61,-96.75
19875.15,-95.26
19896.68,-95.34
19918.21,-96.59
19939.75,-97.45
19961.28,-98.00
19982.81,-96.90
20004.35,-96.04
20025.88,-96.12
20047.41,-98.15
20068.95,-97.76
20090.48,-98.39
20112.01,-98.39
20133.54,-95.81
20155.08,-96.51
20176.61,-98.78
20198.14,-98.47
20219.68,-98.54
20241.21,-99.87
20262.74,-97.45
20284.28,-96.98
20305.81,-100.11
20327.34,-99.25
20348.88,-98.70
20370.41,-99.72
20391.94,-97.76
20413.48,-97.45
20435.01,-99.33
20456.54,-100.65
20478.08,-100.34
20499.61,-100.19
20521.14,-98.54
20542.68,-98.39
20564.21,-100.65
20585.74,-100.34
20607.28,-99.64
20628.81,-101.67
20650.34,-99.72
20671.88,-98.08
20693.41,-100.65
20714.94,-101.28
20736.47,-100.11
20758.01,-103.47
20779.54,-99.87
20801.07,-98.15
20822.61,-101.83
20844.14,-102.69
20865.67,-101.44
20887.21,-103.94
20908.74,-100.26
20930.27,-97.76
20951.81,-101.51
20973.34,-103.62
20994.87,-102.61
21016.41,-105.19
21037.94,-101.20
21059.47,-97.92
21081.01,-102.69
21102.54,-104.41
21124.07,-102.61
21145.61,-105.81
21167.14,-101.98
21188.67,-97.84
21210.21,-102.76
21231.74,-105.03
21253.27,-102.53
21274.80,-105.73
21296.34,-104.56
21317.87,-99.72
21339.40,-103.55
21360.94,-106.12
21382.47,-103.31
21404.00,-106.75
21425.54,-105.42
21447.07,-98.86
21468.60,-102.37
21490.14,-108.00
21511.67,-103.86
21533.20,-106.83
21554.74,-106.59
21576.27,-100.11
21597.80,-102.84
21619.34,-109.72
21640.87,-104.80
21662.40,-106.98
21683.94,-108.08
21705.47,-100.89
21727.00,-102.92
21748.54,-110.50
21770.07,-105.50
21791.60,-107.06
21813.13,-110.11
21834.67,-101.67
21856.20,-102.37
21877.73,-109.64
21899.27,-106.36
21920.80,-106.75
21942.33,-110.58
21963.87,-103.47
21985.40,-102.06
22006.93,-106.12
22028.47,-108.08
22050.00,-107.37
