Frequency (Hz),Power (dB),44100.0000,2048,0,2.0000,0,L+R
0.00,-65.41
21.53,-67.21
43.07,-68.62
64.60,-67.44
86.13,-63.61
107.67,-44.08
129.20,-37.90
150.73,-42.44
172.27,-61.04
193.80,-66.66
215.33,-69.08
236.87,-54.63
258.40,-47.28
279.93,-50.80
301.46,-65.96
323.00,-70.02
344.53,-70.33
366.06,-57.36
387.60,-49.08
409.13,-51.58
430.66,-65.72
452.20,-70.10
473.73,-70.80
495.26,-62.36
516.80,-54.78
538.33,-57.05
559.86,-70.41
581.40,-75.10
602.93,-75.10
624.46,-65.49
646.00,-56.58
667.53,-58.14
689.06,-71.19
710.60,-77.29
732.13,-76.12
753.66,-64.24
775.20,-54.00
796.73,-54.71
818.26,-66.43
839.79,-74.09
861.33,-74.32
882.86,-67.83
904.39,-57.05
925.93,-56.66
947.46,-66.11
968.99,-72.68
990.53,-73.93
1012.06,-68.93
1033.59,-59.16
1055.13,-58.77
1076.66,-68.38
1098.19,-77.37
1119.73,-77.05
1141.26,-71.51
1162.79,-59.79
1184.33,-58.53
1205.86,-67.21
1227.39,-76.27
1248.93,-77.68
1270.46,-73.46
1291.99,-61.58
1313.53,-59.71
1335.06,-67.68
1356.59,-78.54
1378.13,-80.42
1399.66,-78.07
1421.19,-65.80
1442.72,-63.07
1464.26,-69.87
1485.79,-80.26
1507.32,-80.81
1528.86,-77.37
1550.39,-63.93
1571.92,-60.33
1593.46,-66.43
1614.99,-78.93
1636.52,-81.67
1658.06,-81.51
1679.59,-66.82
1701.12,-62.68
1722.66,-68.62
1744.19,-81.90
1765.72,-83.15
1787.26,-82.76
1808.79,-74.87
1830.32,-70.41
1851.86,-74.63
1873.39,-83.46
1894.92,-84.56
1916.46,-84.32
1937.99,-73.54
1959.52,-67.60
1981.05,-71.04
2002.59,-81.98
2024.12,-83.78
2045.65,-84.32
2067.19,-75.26
2088.72,-67.52
2110.25,-70.26
2131.79,-82.29
2153.32,-84.87
2174.85,-84.24
2196.39,-70.57
2217.92,-62.83
2239.45,-65.57
2260.99,-78.31
2282.52,-82.06
2304.05,-82.06
2325.59,-71.58
2347.12,-63.15
2368.65,-65.02
2390.19,-78.54
2411.72,-85.96
2433.25,-85.10
2454.79,-72.76
2476.32,-63.85
2497.85,-65.41
2519.38,-78.15
2540.92,-86.04
2562.45,-86.51
2583.98,-76.20
2605.52,-66.66
2627.05,-67.76
2648.58,-80.10
2670.12,-89.71
2691.65,-90.26
2713.18,-80.81
2734.72,-70.10
2756.25,-70.26
2777.78,-81.20
2799.32,-88.31
2820.85,-88.46
2842.38,-83.07
2863.92,-74.01
2885.45,-73.15
2906.98,-81.35
2928.52,-86.74
2950.05,-85.96
2971.58,-79.95
2993.12,-68.69
3014.65,-67.21
3036.18,-75.41
3057.71,-84.09
3079.25,-85.10
3100.78,-82.84
3122.31,-72.44
3143.85,-69.87
3165.38,-76.82
3186.91,-84.71
3208.45,-85.49
3229.98,-81.51
3251.51,-69.71
3273.05,-67.76
3294.58,-75.34
3316.11,-87.76
3337.65,-88.93
3359.18,-85.81
3380.71,-71.19
3402.25,-67.83
3423.78,-74.32
3445.31,-87.37
3466.85,-89.71
3488.38,-87.84
3509.91,-72.99
3531.45,-69.08
3552.98,-75.41
3574.51,-87.76
3596.04,-87.14
3617.58,-85.65
3639.11,-74.16
3660.64,-70.18
3682.18,-75.73
3703.71,-88.07
3725.24,-88.93
3746.78,-87.76
3768.31,-74.01
3789.84,-68.15
3811.38,-72.37
3832.91,-87.06
3854.44,-90.26
3875.98,-89.64
3897.51,-79.32
3919.04,-72.13
3940.58,-74.95
3962.11,-86.35
3983.64,-89.25
4005.18,-88.78
4026.71,-76.82
4048.24,-70.33
4069.78,-74.01
4091.31,-88.15
4112.84,-90.11
4134.38,-90.26
4155.91,-81.98
4177.44,-74.48
4198.97,-76.04
4220.51,-86.67
4242.04,-92.14
4263.57,-92.06
4285.11,-83.23
4306.64,-74.32
4328.17,-75.49
4349.71,-86.20
4371.24,-91.51
4392.77,-92.45
4414.31,-83.70
4435.84,-75.65
4457.37,-76.82
4478.91,-86.98
4500.44,-92.06
4521.97,-91.59
4543.51,-83.93
4565.04,-74.40
4586.57,-74.09
4608.11,-83.62
4629.64,-96.04
4651.17,-96.67
4672.71,-89.01
4694.24,-77.68
4715.77,-76.66
4737.30,-85.03
4758.84,-92.45
4780.37,-93.54
4801.90,-88.78
4823.44,-77.84
4844.97,-76.43
4866.50,-85.18
4888.04,-93.31
4909.57,-93.31
4931.10,-89.87
4952.64,-80.02
4974.17,-77.76
4995.70,-83.85
5017.24,-91.20
5038.77,-91.67
5060.30,-89.25
5081.84,-80.81
5103.37,-78.38
5124.90,-82.92
5146.44,-90.11
5167.97,-91.20
5189.50,-91.20
5211.04,-85.10
5232.57,-82.37
5254.10,-85.57
5275.63,-88.46
5297.17,-87.84
5318.70,-86.43
5340.23,-79.95
5361.77,-76.82
5383.30,-80.42
5404.83,-88.62
5426.37,-91.67
5447.90,-91.20
5469.43,-80.88
5490.97,-75.88
5512.50,-80.10
5534.03,-91.90
5555.57,-94.72
5577.10,-94.95
5598.63,-86.12
5620.17,-80.88
5641.70,-84.71
5663.23,-94.32
5684.77,-96.59
5706.30,-96.51
5727.83,-87.68
5749.37,-80.26
5770.90,-82.60
5792.43,-94.17
5813.96,-98.86
5835.50,-98.78
5857.03,-88.15
5878.56,-80.81
5900.10,-83.15
5921.63,-93.23
5943.16,-96.90
5964.70,-96.04
5986.23,-85.18
6007.76,-77.99
6029.30,-79.71
6050.83,-89.17
6072.36,-94.79
6093.90,-94.01
6115.43,-88.15
6136.96,-81.90
6158.50,-83.07
6180.03,-93.47
6201.56,-95.50
6223.10,-94.56
6244.63,-90.73
6266.16,-83.31
6287.70,-83.46
6309.23,-90.50
6330.76,-95.11
6352.29,-95.58
6373.83,-91.20
6395.36,-83.93
6416.89,-83.38
6438.43,-90.26
6459.96,-95.18
6481.49,-94.95
6503.03,-91.43
6524.56,-83.62
6546.09,-82.76
6567.63,-90.26
6589.16,-96.75
6610.69,-97.14
6632.23,-93.07
6653.76,-83.54
6675.29,-81.74
6696.83,-88.78
6718.36,-97.06
6739.89,-96.83
6761.43,-93.15
6782.96,-83.07
6804.49,-81.27
6826.03,-88.70
6847.56,-99.33
6869.09,-100.26
6890.63,-95.18
6912.16,-85.57
6933.69,-82.99
6955.22,-88.85
6976.76,-99.72
6998.29,-101.28
7019.82,-98.54
7041.36,-85.34
7062.89,-80.49
7084.42,-84.87
7105.96,-95.26
7127.49,-97.29
7149.02,-96.04
7170.56,-86.28
7192.09,-81.67
7213.62,-86.12
7235.16,-97.76
7256.69,-98.78
7278.22,-97.37
7299.76,-89.48
7321.29,-84.24
7342.82,-87.21
7364.36,-96.04
7385.89,-98.94
7407.42,-98.86
7428.96,-91.12
7450.49,-84.79
7472.02,-87.29
7493.55,-96.20
7515.09,-97.37
7536.62,-96.20
7558.15,-87.68
7579.69,-83.23
7601.22,-86.12
7622.75,-94.64
7644.29,-98.15
7665.82,-97.53
7687.35,-87.06
7708.89,-80.02
7730.42,-81.59
7751.95,-90.57
7773.49,-96.43
7795.02,-97.68
7816.55,-90.96
7838.09,-84.17
7859.62,-85.49
7881.15,-95.65
7902.69,-100.73
7924.22,-99.72
7945.75,-90.03
7967.29,-81.51
7988.82,-81.74
8010.35,-90.96
8031.88,-98.08
8053.42,-97.53
8074.95,-91.28
8096.48,-84.40
8118.02,-84.56
8139.55,-92.45
8161.08,-98.23
8182.62,-98.47
8204.15,-94.87
8225.68,-88.93
8247.22,-88.23
8268.75,-94.25
8290.28,-99.01
8311.82,-98.31
8333.35,-94.01
8354.88,-86.43
8376.42,-85.03
8397.95,-91.82
8419.48,-99.25
8441.02,-98.39
8462.55,-92.29
8484.08,-84.48
8505.62,-83.38
8527.15,-89.32
8548.68,-97.22
8570.21,-98.23
8591.75,-96.36
8613.28,-88.93
8634.81,-86.82
8656.35,-92.61
8677.88,-99.25
8699.41,-99.72
8720.95,-96.51
8742.48,-88.85
8764.01,-85.96
8785.55,-90.34
8807.08,-99.64
8828.61,-102.06
8850.15,-99.56
8871.68,-89.25
8893.21,-85.49
8914.75,-89.87
8936.28,-99.09
8957.81,-99.87
8979.35,-98.39
9000.88,-92.76
9022.41,-88.46
9043.95,-91.59
9065.48,-100.03
9087.01,-102.61
9108.54,-101.90
9130.08,-95.81
9151.61,-90.18
9173.14,-91.59
9194.68,-99.17
9216.21,-101.98
9237.74,-100.73
9259.28,-92.37
9280.81,-86.12
9302.34,-87.60
9323.88,-95.34
9345.41,-100.58
9366.94,-101.05
9388.48,-97.29
9410.01,-92.37
9431.54,-93.00
9453.08,-99.25
9474.61,-102.22
9496.14,-102.53
9517.68,-97.14
9539.21,-89.79
9560.74,-89.64
9582.28,-95.73
9603.81,-98.86
9625.34,-98.15
9646.88,-93.54
9668.41,-88.07
9689.94,-88.46
9711.47,-96.04
9733.01,-102.53
9754.54,-102.76
9776.07,-97.37
9797.61,-91.20
9819.14,-91.04
9840.67,-98.23
9862.21,-103.16
9883.74,-103.31
9905.27,-100.58
9926.81,-95.34
9948.34,-95.18
9969.87,-100.50
9991.41,-103.62
10012.94,-102.61
10034.47,-97.53
10056.01,-88.70
10077.54,-87.21
10099.07,-93.54
10120.61,-102.53
10142.14,-105.26
10163.67,-103.78
10185.21,-95.58
10206.74,-93.15
10228.27,-98.78
10249.80,-106.36
10271.34,-105.97
10292.87,-103.39
10314.40,-96.59
10335.94,-94.48
10357.47,-99.33
10379.00,-104.80
10400.54,-104.87
10422.07,-102.53
10443.60,-95.65
10465.14,-93.78
10486.67,-97.84
10508.20,-104.33
10529.74,-104.87
10551.27,-103.00
10572.80,-95.42
10594.34,-92.14
10615.87,-95.89
10637.40,-104.33
10658.94,-109.33
10680.47,-107.22
10702.00,-97.61
10723.54,-93.39
10745.07,-96.04
10766.60,-101.98
10788.13,-103.39
10809.67,-101.67
10831.20,-94.79
10852.73,-90.03
10874.27,-93.00
10895.80,-102.45
10917.33,-106.36
10938.87,-104.56
10960.40,-97.37
10981.93,-92.76
11003.47,-94.25
11025.00,-99.48
11046.53,-102.84
11068.07,-104.25
11089.60,-97.53
11111.13,-92.06
11132.67,-94.09
11154.20,-102.45
11175.73,-105.66
11197.27,-104.33
11218.80,-97.45
11240.33,-92.92
11261.87,-95.50
11283.40,-102.53
11304.93,-106.12
11326.46,-105.89
11348.00,-100.97
11369.53,-95.50
11391.06,-95.18
11412.60,-100.03
11434.13,-105.42
11455.66,-106.28
11477.20,-103.08
11498.73,-96.20
11520.26,-95.58
11541.80,-100.11
11563.33,-103.62
11584.86,-104.64
11606.40,-103.70
11627.93,-99.33
11649.46,-97.37
11671.00,-100.65
11692.53,-104.95
11714.06,-105.42
11735.60,-101.83
11757.13,-95.89
11778.66,-94.79
11800.20,-99.56
11821.73,-104.33
11843.26,-104.48
11864.79,-101.98
11886.33,-95.58
11907.86,-94.64
11929.39,-99.56
11950.93,-103.94
11972.46,-105.66
11993.99,-103.16
12015.53,-95.18
12037.06,-93.47
12058.59,-99.95
12080.13,-108.00
12101.66,-107.53
12123.19,-104.01
12144.73,-98.08
12166.26,-97.06
12187.79,-102.37
12209.33,-109.80
12230.86,-112.14
12252.39,-106.98
12273.93,-97.22
12295.46,-93.62
12316.99,-97.37
12338.53,-105.50
12360.06,-107.53
12381.59,-106.05
12403.13,-100.11
12424.66,-96.90
12446.19,-100.26
12467.72,-106.83
12489.26,-108.94
12510.79,-107.92
12532.32,-100.81
12553.86,-96.90
12575.39,-99.48
12596.92,-107.06
12618.46,-108.47
12639.99,-107.30
12661.52,-102.37
12683.06,-99.25
12704.59,-100.73
12726.12,-105.19
12747.66,-107.37
12769.19,-107.84
12790.72,-104.48
12812.26,-100.42
12833.79,-102.45
12855.32,-108.00
12876.86,-109.80
12898.39,-109.09
12919.92,-103.86
12941.46,-98.94
12962.99,-99.64
12984.52,-105.66
13006.05,-107.61
13027.59,-105.97
13049.12,-100.50
13070.65,-94.48
13092.19,-94.72
13113.72,-101.12
13135.25,-106.83
13156.79,-108.31
13178.32,-104.87
13199.85,-99.64
13221.39,-99.72
13242.92,-104.95
13264.45,-108.63
13285.99,-108.55
13307.52,-104.48
13329.05,-98.47
13350.59,-98.78
13372.12,-106.75
13393.65,-114.10
13415.19,-114.25
13436.72,-108.23
13458.25,-100.58
13479.79,-99.33
13501.32,-105.81
13522.85,-112.84
13544.38,-113.31
13565.92,-111.28
13587.45,-103.55
13608.98,-100.50
13630.52,-104.33
13652.05,-107.92
13673.58,-108.55
13695.12,-107.45
13716.65,-105.03
13738.18,-105.11
13759.72,-108.31
13781.25,-111.75
13802.78,-112.06
13824.32,-109.88
13845.85,-105.11
13867.38,-101.51
13888.92,-103.62
13910.45,-108.55
13931.98,-110.27
13953.52,-109.09
13975.05,-105.97
13996.58,-105.50
14018.12,-109.95
14039.65,-112.77
14061.18,-113.55
14082.71,-112.14
14104.25,-105.89
14125.78,-102.30
14147.31,-105.42
14168.85,-111.52
14190.38,-112.53
14211.91,-111.05
14233.45,-106.05
14254.98,-102.45
14276.51,-105.81
14298.05,-114.17
14319.58,-115.74
14341.11,-114.33
14362.65,-107.14
14384.18,-102.76
14405.71,-104.80
14427.25,-110.34
14448.78,-112.14
14470.31,-112.30
14491.85,-107.92
14513.38,-103.47
14534.91,-105.03
14556.45,-110.42
14577.98,-111.99
14599.51,-111.44
14621.04,-106.98
14642.58,-102.22
14664.11,-103.94
14685.64,-108.94
14707.18,-112.69
14728.71,-113.00
14750.24,-106.98
14771.78,-101.83
14793.31,-103.08
14814.84,-109.33
14836.38,-115.50
14857.91,-115.74
14879.44,-111.99
14900.98,-106.67
14922.51,-108.16
14944.04,-112.84
14965.58,-114.95
14987.11,-115.11
15008.64,-112.45
15030.18,-105.73
15051.71,-104.87
15073.24,-109.41
15094.78,-113.16
15116.31,-113.78
15137.84,-112.53
15159.38,-106.36
15180.91,-105.50
15202.44,-110.58
15223.97,-113.08
15245.51,-113.55
15267.04,-110.74
15288.57,-104.64
15310.11,-102.45
15331.64,-105.11
15353.17,-108.55
15374.71,-110.03
15396.24,-109.72
15417.77,-105.73
15439.31,-103.23
15460.84,-105.66
15482.37,-109.72
15503.91,-110.89
15525.44,-110.34
15546.97,-105.89
15568.51,-102.61
15590.04,-105.66
15611.57,-111.36
15633.11,-113.31
15654.64,-110.42
15676.17,-105.11
15697.71,-102.53
15719.24,-104.87
15740.77,-110.66
15762.30,-112.06
15783.84,-111.59
15805.37,-107.92
15826.90,-105.89
15848.44,-107.77
15869.97,-112.45
15891.50,-112.84
15913.04,-111.67
15934.57,-108.16
15956.10,-106.44
15977.64,-108.47
15999.17,-111.44
16020.70,-111.99
16042.24,-110.58
16063.77,-106.75
16085.30,-104.41
16106.84,-106.52
16128.37,-110.66
16149.90,-112.61
16171.44,-112.14
16192.97,-108.70
16214.50,-105.97
16236.04,-108.39
16257.57,-112.69
16279.10,-114.02
16300.63,-112.84
16322.17,-108.78
16343.70,-104.17
16365.23,-105.11
16386.77,-111.28
16408.30,-113.31
16429.83,-112.77
16451.37,-108.63
16472.90,-105.58
16494.43,-107.30
16515.97,-113.70
16537.50,-117.30
16559.03,-115.11
16580.57,-109.88
16602.10,-105.58
16623.63,-105.50
16645.17,-110.42
16666.70,-112.30
16688.23,-111.99
16709.77,-109.17
16731.30,-105.11
16752.83,-105.66
16774.37,-112.61
16795.90,-114.41
16817.43,-113.08
16838.96,-109.41
16860.50,-104.17
16882.03,-104.17
16903.56,-110.42
16925.10,-117.92
16946.63,-116.05
16968.16,-113.70
16989.70,-106.98
17011.23,-106.36
17032.76,-111.05
17054.30,-115.89
17075.83,-116.21
17097.36,-113.63
17118.90,-108.47
17140.43,-106.52
17161.96,-110.42
17183.50,-114.80
17205.03,-114.49
17226.56,-112.45
17248.10,-107.45
17269.63,-104.48
17291.16,-107.61
17312.70,-113.31
17334.23,-113.63
17355.76,-111.75
17377.29,-107.53
17398.83,-105.58
17420.36,-109.09
17441.89,-114.41
17463.43,-115.35
17484.96,-114.02
17506.49,-110.74
17528.03,-109.33
17549.56,-111.13
17571.09,-113.70
17592.63,-114.41
17614.16,-113.39
17635.69,-109.48
17657.23,-107.45
17678.76,-109.95
17700.29,-115.19
17721.83,-116.13
17743.36,-114.72
17764.89,-110.50
17786.43,-107.53
17807.96,-109.41
17829.49,-115.03
17851.03,-117.22
17872.56,-117.38
17894.09,-113.08
17915.63,-108.08
17937.16,-109.25
17958.69,-115.11
17980.22,-116.67
18001.76,-115.97
18023.29,-111.99
18044.82,-108.47
18066.36,-110.66
18087.89,-117.22
18109.42,-120.42
18130.96,-119.80
18152.49,-115.50
18174.02,-112.38
18195.56,-112.14
18217.09,-114.64
18238.62,-117.53
18260.16,-118.00
18281.69,-116.05
18303.22,-111.28
18324.76,-112.69
18346.29,-118.94
18367.82,-121.44
18389.36,-120.19
18410.89,-116.28
18432.42,-110.11
18453.96,-109.09
18475.49,-113.63
18497.02,-117.06
18518.55,-117.85
18540.09,-115.58
18561.62,-109.72
18583.15,-109.48
18604.69,-113.08
18626.22,-117.53
18647.75,-118.24
18669.29,-116.99
18690.82,-112.69
18712.35,-111.99
18733.89,-114.80
18755.42,-117.85
18776.95,-119.10
18798.49,-117.69
18820.02,-112.69
18841.55,-110.81
18863.09,-112.45
18884.62,-116.21
18906.15,-116.21
18927.69,-115.11
18949.22,-110.50
18970.75,-109.09
18992.29,-112.61
19013.82,-116.44
19035.35,-116.91
19056.88,-115.81
19078.42,-111.13
19099.95,-108.86
19121.48,-111.75
19143.02,-115.74
19164.55,-117.77
19186.08,-117.77
19207.62,-115.97
19229.15,-114.10
19250.68,-114.88
19272.22,-118.63
19293.75,-120.82
19315.28,-120.74
19336.82,-117.38
19358.35,-112.22
19379.88,-112.69
19401.42,-117.85
19422.95,-119.80
19444.48,-118.55
19466.02,-114.95
19487.55,-111.20
19509.08,-112.06
19530.62,-115.66
19552.15,-117.53
19573.68,-118.00
19595.21,-114.64
19616.75,-111.91
19638.28,-113.63
19659.81,-118.78
19681.35,-121.21
19702.88,-120.50
19724.41,-115.97
19745.95,-112.69
19767.48,-114.56
19789.01,-119.02
19810.55,-121.28
19832.08,-121.05
19853.61,-115.58
19875.15,-111.67
19896.68,-113.70
19918.21,-119.96
19939.75,-125.50
19961.28,-124.33
19982.81,-119.64
20004.35,-115.27
20025.88,-116.05
20047.41,-121.21
20068.95,-124.02
20090.48,-124.18
20112.01,-119.64
20133.54,-113.16
20155.08,-112.22
20176.61,-117.30
20198.14,-122.93
20219.68,-123.16
20241.21,-119.80
20262.74,-114.88
20284.28,-113.94
20305.81,-119.17
20327.34,-124.10
20348.88,-123.86
20370.41,-120.19
20391.94,-114.80
20413.48,-113.31
20435.01,-117.69
20456.54,-122.46
20478.08,-123.71
20499.61,-122.07
20521.14,-117.77
20542.68,-114.64
20564.21,-117.69
20585.74,-123.86
20607.28,-122.85
20628.81,-119.96
20650.34,-114.64
20671.88,-112.84
20693.41,-115.81
20714.94,-119.41
20736.47,-120.66
20758.01,-119.49
20779.54,-114.49
20801.07,-112.84
20822.61,-117.14
20844.14,-122.14
20865.67,-122.14
20887.21,-120.03
20908.74,-116.21
20930.27,-113.39
20951.81,-116.28
20973.34,-120.27
20994.87,-120.97
21016.41,-120.74
21037.94,-117.22
21059.47,-114.72
21081.01,-117.06
21102.54,-121.13
21124.07,-123.16
21145.61,-123.00
21167.14,-118.86
21188.67,-115.74
21210.21,-119.25
21231.74,-125.58
21253.27,-126.13
21274.80,-126.36
21296.34,-123.71
21317.87,-117.69
21339.40,-118.55
21360.94,-122.30
21382.47,-122.93
21404.00,-121.83
21425.54,-119.64
21447.07,-118.24
21468.60,-119.96
21490.14,-123.79
21511.67,-127.61
21533.20,-126.83
21554.74,-122.22
21576.27,-116.52
21597.80,-116.52
21619.34,-121.36
21640.87,-124.18
21662.40,-123.94
21683.94,-120.42
21705.47,-116.75
21727.00,-117.92
21748.54,-124.64
21770.07,-129.41
21791.60,-128.63
21813.13,-123.63
21834.67,-118.47
21856.20,-117.38
21877.73,-121.05
21899.27,-125.11
21920.80,-125.74
21942.33,-123.16
21963.87,-119.02
21985.40,-118.78
22006.93,-122.93
22028.47,-127.46
22050.00,-129.18
