Frequency (Hz),Power (dB),44100.0000,2048,0,2.0000,0,L+R
0.00,-64.40
21.53,-63.85
43.07,-63.30
64.60,-62.91
86.13,-58.61
107.67,-39.78
129.20,-33.61
150.73,-38.30
172.27,-57.60
193.80,-63.46
215.33,-62.75
236.87,-49.31
258.40,-41.81
279.93,-45.17
301.46,-62.05
323.00,-67.76
344.53,-68.46
366.06,-66.74
387.60,-62.05
409.13,-63.69
430.66,-68.38
452.20,-69.79
473.73,-69.32
495.26,-57.75
516.80,-49.00
538.33,-50.95
559.86,-64.32
581.40,-72.60
602.93,-75.49
624.46,-72.52
646.00,-65.65
667.53,-59.24
689.06,-45.33
710.60,-43.61
732.13,-52.91
753.66,-50.56
775.20,-39.86
796.73,-40.48
818.26,-53.14
839.79,-64.40
861.33,-67.60
882.86,-69.87
904.39,-66.90
925.93,-67.60
947.46,-72.84
968.99,-72.68
990.53,-71.43
1012.06,-61.74
1033.59,-49.00
1055.13,-48.06
1076.66,-58.61
1098.19,-72.44
1119.73,-76.51
1141.26,-74.40
1162.79,-62.68
1184.33,-60.96
1205.86,-68.07
1227.39,-71.35
1248.93,-66.66
1270.46,-51.97
1291.99,-48.92
1313.53,-55.80
1335.06,-66.04
1356.59,-70.57
1378.13,-70.26
1399.66,-68.15
1421.19,-55.57
1442.72,-52.36
1464.26,-60.10
1485.79,-73.69
1507.32,-73.85
1528.86,-66.58
1550.39,-62.83
1571.92,-64.32
1593.46,-68.93
1614.99,-72.60
1636.52,-74.24
1658.06,-75.57
1679.59,-69.47
1701.12,-65.65
1722.66,-69.94
1744.19,-77.52
1765.72,-78.23
1787.26,-78.85
1808.79,-74.01
1830.32,-70.10
1851.86,-73.38
1873.39,-78.07
1894.92,-75.41
1916.46,-71.19
1937.99,-57.21
1959.52,-48.92
1981.05,-51.19
2002.59,-65.18
2024.12,-71.98
2045.65,-74.32
2067.19,-72.52
2088.72,-69.16
2110.25,-72.44
2131.79,-80.73
2153.32,-85.49
2174.85,-84.24
2196.39,-78.85
2217.92,-71.66
2239.45,-72.44
2260.99,-81.82
2282.52,-87.76
2304.05,-88.39
2325.59,-86.74
2347.12,-80.49
2368.65,-80.88
2390.19,-85.42
2411.72,-74.01
2433.25,-64.71
2454.79,-66.58
2476.32,-76.82
2497.85,-69.24
2519.38,-65.96
2540.92,-71.04
2562.45,-83.54
2583.98,-86.98
2605.52,-83.31
2627.05,-82.45
2648.58,-74.32
2670.12,-64.71
2691.65,-61.43
2713.18,-58.61
2734.72,-63.22
2756.25,-64.79
2777.78,-60.33
2799.32,-62.68
2820.85,-66.11
2842.38,-75.41
2863.92,-79.24
2885.45,-72.05
2906.98,-60.88
2928.52,-60.33
2950.05,-70.88
2971.58,-82.92
2993.12,-79.32
3014.65,-77.91
3036.18,-74.55
3057.71,-67.99
3079.25,-71.51
3100.78,-85.96
3122.31,-85.18
3143.85,-82.84
3165.38,-86.82
3186.91,-90.73
3208.45,-90.96
3229.98,-90.11
3251.51,-81.59
3273.05,-75.80
3294.58,-75.57
3316.11,-76.20
3337.65,-72.91
3359.18,-79.09
3380.71,-93.15
3402.25,-94.87
3423.78,-97.92
3445.31,-99.40
3466.85,-96.20
3488.38,-80.81
3509.91,-75.34
3531.45,-76.04
3552.98,-78.31
3574.51,-80.57
3596.04,-89.71
3617.58,-93.93
3639.11,-90.42
3660.64,-86.90
3682.18,-89.79
3703.71,-95.65
3725.24,-96.83
3746.78,-97.37
3768.31,-93.78
3789.84,-87.29
3811.38,-82.13
3832.91,-85.57
3854.44,-99.01
3875.98,-97.53
3897.51,-94.79
3919.04,-92.53
3940.58,-93.15
3962.11,-91.28
3983.64,-93.47
4005.18,-99.87
4026.71,-91.28
4048.24,-83.70
4069.78,-85.34
4091.31,-95.50
4112.84,-100.19
4134.38,-103.70
4155.91,-102.69
4177.44,-99.95
4198.97,-100.26
4220.51,-105.11
4242.04,-105.19
4263.57,-102.76
4285.11,-91.90
4306.64,-80.65
4328.17,-81.04
4349.71,-90.18
4371.24,-93.07
4392.77,-102.69
4414.31,-100.81
4435.84,-94.32
4457.37,-94.79
4478.91,-99.17
4500.44,-102.92
4521.97,-105.89
4543.51,-101.12
4565.04,-91.43
4586.57,-89.56
4608.11,-96.43
4629.64,-104.25
4651.17,-105.11
4672.71,-104.41
4694.24,-102.14
4715.77,-103.16
4737.30,-106.91
4758.84,-107.61
4780.37,-105.58
4801.90,-99.48
4823.44,-86.90
4844.97,-84.24
4866.50,-90.96
4888.04,-101.75
4909.57,-104.17
4931.10,-100.58
4952.64,-90.73
4974.17,-88.15
4995.70,-94.17
5017.24,-103.00
5038.77,-106.83
5060.30,-101.83
5081.84,-83.70
5103.37,-79.48
5124.90,-86.12
5146.44,-103.70
5167.97,-106.91
5189.50,-105.34
5211.04,-95.26
5232.57,-91.36
5254.10,-95.89
5275.63,-106.44
5297.17,-109.09
5318.70,-107.30
5340.23,-95.34
5361.77,-90.18
5383.30,-93.86
5404.83,-105.58
5426.37,-112.45
5447.90,-114.49
5469.43,-110.50
5490.97,-106.52
5512.50,-108.23
5534.03,-114.17
5555.57,-117.14
5577.10,-118.16
5598.63,-113.16
5620.17,-108.16
5641.70,-109.17
5663.23,-113.47
5684.77,-114.80
5706.30,-115.74
5727.83,-112.38
5749.37,-106.67
5770.90,-106.67
5792.43,-112.14
5813.96,-114.02
5835.50,-112.30
5857.03,-108.23
5878.56,-104.48
5900.10,-106.20
5921.63,-113.00
5943.16,-111.99
5964.70,-108.23
5986.23,-98.78
6007.76,-90.03
6029.30,-90.34
6050.83,-99.09
6072.36,-108.63
6093.90,-113.08
6115.43,-112.77
6136.96,-108.00
6158.50,-106.98
6180.03,-110.89
6201.56,-114.33
6223.10,-114.33
6244.63,-111.75
6266.16,-108.00
6287.70,-107.37
6309.23,-110.50
6330.76,-111.67
6352.29,-109.33
6373.83,-100.65
6395.36,-90.03
6416.89,-88.70
6438.43,-96.28
6459.96,-108.63
6481.49,-114.10
6503.03,-113.63
6524.56,-108.63
6546.09,-106.28
6567.63,-109.64
6589.16,-112.92
6610.69,-110.27
6632.23,-105.73
6653.76,-94.01
6675.29,-90.89
6696.83,-96.67
6718.36,-107.84
6739.89,-110.34
6761.43,-110.81
6782.96,-107.77
6804.49,-107.77
6826.03,-111.05
6847.56,-113.70
6869.09,-110.34
6890.63,-103.70
6912.16,-88.93
6933.69,-84.32
6955.22,-89.09
6976.76,-101.90
6998.29,-107.77
7019.82,-109.88
7041.36,-108.78
7062.89,-107.22
7084.42,-108.39
7105.96,-110.03
7127.49,-108.94
7149.02,-104.33
7170.56,-87.37
7192.09,-80.65
7213.62,-84.79
7235.16,-102.14
7256.69,-110.97
7278.22,-113.39
7299.76,-112.14
7321.29,-109.64
7342.82,-111.28
7364.36,-118.32
7385.89,-122.07
7407.42,-120.27
7428.96,-113.94
7450.49,-109.80
7472.02,-110.11
7493.55,-115.19
7515.09,-119.17
7536.62,-118.78
7558.15,-114.25
7579.69,-111.20
7601.22,-112.84
7622.75,-119.10
7644.29,-123.79
7665.82,-123.08
7687.35,-116.05
7708.89,-111.36
7730.42,-111.99
7751.95,-118.47
7773.49,-123.47
7795.02,-122.69
7816.55,-115.81
7838.09,-110.34
7859.62,-109.02
7881.15,-114.17
7902.69,-120.58
7924.22,-122.69
7945.75,-116.67
7967.29,-111.83
7988.82,-111.44
8010.35,-116.05
8031.88,-121.52
8053.42,-120.35
8074.95,-117.85
8096.48,-112.92
8118.02,-112.14
8139.55,-116.13
8161.08,-121.05
8182.62,-121.13
8204.15,-116.83
8225.68,-111.44
8247.22,-109.88
8268.75,-113.63
8290.28,-122.46
8311.82,-122.14
8333.35,-118.71
8354.88,-113.55
8376.42,-112.45
8397.95,-114.95
8419.48,-121.13
8441.02,-123.63
8462.55,-121.44
8484.08,-115.81
8505.62,-113.08
8527.15,-114.72
8548.68,-120.35
8570.21,-121.21
8591.75,-116.91
8613.28,-111.52
8634.81,-110.66
8656.35,-112.53
8677.88,-119.57
8699.41,-122.69
8720.95,-119.96
8742.48,-113.39
8764.01,-111.52
8785.55,-113.47
8807.08,-120.97
8828.61,-125.35
8850.15,-121.91
8871.68,-114.64
8893.21,-111.59
8914.75,-112.30
8936.28,-118.08
8957.81,-121.36
8979.35,-119.41
9000.88,-113.86
9022.41,-111.91
9043.95,-112.69
9065.48,-117.46
9087.01,-121.28
9108.54,-119.64
9130.08,-113.94
9151.61,-111.91
9173.14,-112.92
9194.68,-118.71
9216.21,-123.55
9237.74,-122.77
9259.28,-116.36
9280.81,-113.08
9302.34,-113.24
9323.88,-118.71
9345.41,-124.88
9366.94,-123.79
9388.48,-116.05
9410.01,-112.14
9431.54,-112.06
9453.08,-116.67
9474.61,-122.46
9496.14,-120.97
9517.68,-115.42
9539.21,-112.77
9560.74,-113.31
9582.28,-117.53
9603.81,-123.63
9625.34,-123.63
9646.88,-118.63
9668.41,-114.72
9689.94,-113.70
9711.47,-118.24
9733.01,-125.89
9754.54,-125.58
9776.07,-117.22
9797.61,-112.53
9819.14,-112.30
9840.67,-116.05
9862.21,-123.08
9883.74,-125.74
9905.27,-120.58
9926.81,-115.81
9948.34,-114.72
9969.87,-117.69
9991.41,-124.88
10012.94,-126.60
10034.47,-120.42
10056.01,-114.64
10077.54,-113.63
10099.07,-116.44
10120.61,-123.16
10142.14,-126.91
10163.67,-121.52
10185.21,-114.80
10206.74,-113.70
10228.27,-115.97
10249.80,-120.74
10271.34,-120.74
10292.87,-117.61
10314.40,-113.08
10335.94,-111.36
10357.47,-113.16
10379.00,-118.16
10400.54,-122.61
10422.07,-121.28
10443.60,-115.97
10465.14,-113.00
10486.67,-114.56
10508.20,-120.27
10529.74,-125.66
10551.27,-122.46
10572.80,-116.83
10594.34,-114.64
10615.87,-115.42
10637.40,-120.35
10658.94,-124.18
10680.47,-121.91
10702.00,-116.52
10723.54,-114.80
10745.07,-115.97
10766.60,-120.97
10788.13,-125.66
10809.67,-122.85
10831.20,-118.32
10852.73,-115.66
10874.27,-115.35
10895.80,-120.50
10917.33,-127.77
10938.87,-124.25
10960.40,-117.38
10981.93,-115.19
11003.47,-115.03
11025.00,-118.47
11046.53,-123.24
11068.07,-121.75
11089.60,-116.83
11111.13,-115.58
11132.67,-115.19
11154.20,-118.08
11175.73,-123.71
11197.27,-123.94
11218.80,-118.94
11240.33,-115.97
11261.87,-115.74
11283.40,-120.03
11304.93,-128.63
11326.46,-126.60
11348.00,-119.17
11369.53,-116.60
11391.06,-116.05
11412.60,-118.08
11434.13,-123.47
11455.66,-123.39
11477.20,-117.53
11498.73,-114.56
11520.26,-113.63
11541.80,-115.58
11563.33,-121.21
11584.86,-125.11
11606.40,-120.27
11627.93,-117.14
11649.46,-116.21
11671.00,-119.02
11692.53,-125.82
11714.06,-126.60
11735.60,-119.49
11757.13,-115.35
11778.66,-115.03
11800.20,-116.83
11821.73,-122.93
11843.26,-126.36
11864.79,-120.89
11886.33,-116.67
11907.86,-115.35
11929.39,-117.38
11950.93,-122.77
11972.46,-126.75
11993.99,-121.99
12015.53,-118.08
12037.06,-117.22
12058.59,-118.86
12080.13,-125.04
12101.66,-128.86
12123.19,-123.24
12144.73,-117.77
12166.26,-116.91
12187.79,-118.71
12209.33,-123.94
12230.86,-128.79
12252.39,-124.10
12273.93,-117.85
12295.46,-116.83
12316.99,-118.39
12338.53,-124.57
12360.06,-129.57
12381.59,-125.11
12403.13,-119.96
12424.66,-117.69
12446.19,-118.78
12467.72,-124.64
12489.26,-133.63
12510.79,-127.15
12532.32,-119.64
12553.86,-117.92
12575.39,-118.32
12596.92,-121.21
12618.46,-127.22
12639.99,-126.91
12661.52,-120.66
12683.06,-118.71
12704.59,-120.27
12726.12,-123.63
12747.66,-127.22
12769.19,-125.58
12790.72,-121.36
12812.26,-119.41
12833.79,-119.72
12855.32,-123.71
12876.86,-131.37
12898.39,-129.49
12919.92,-121.75
12941.46,-118.94
12962.99,-118.63
12984.52,-120.50
13006.05,-126.36
13027.59,-126.99
13049.12,-122.07
13070.65,-120.11
13092.19,-119.41
13113.72,-121.21
13135.25,-125.04
13156.79,-125.74
13178.32,-121.28
13199.85,-119.72
13221.39,-119.25
13242.92,-121.52
13264.45,-128.00
13285.99,-127.93
13307.52,-121.28
13329.05,-119.33
13350.59,-118.94
13372.12,-119.88
13393.65,-125.19
13415.19,-126.68
13436.72,-121.36
13458.25,-118.86
13479.79,-118.39
13501.32,-119.96
13522.85,-124.41
13544.38,-126.99
13565.92,-122.61
13587.45,-121.05
13608.98,-119.64
13630.52,-120.66
13652.05,-126.44
13673.58,-128.79
13695.12,-122.69
13716.65,-119.41
13738.18,-119.33
13759.72,-120.50
13781.25,-125.27
13802.78,-129.33
13824.32,-123.32
13845.85,-120.27
13867.38,-118.94
13888.92,-120.03
13910.45,-125.11
13931.98,-129.88
13953.52,-124.80
13975.05,-121.13
13996.58,-119.80
14018.12,-120.27
14039.65,-125.19
14061.18,-130.51
14082.71,-125.66
14104.25,-121.44
14125.78,-120.89
14147.31,-121.28
14168.85,-124.25
14190.38,-129.49
14211.91,-125.04
14233.45,-121.13
14254.98,-120.50
14276.51,-121.13
14298.05,-125.58
14319.58,-131.29
14341.11,-128.08
14362.65,-122.53
14384.18,-121.36
14405.71,-121.52
14427.25,-124.96
14448.78,-131.68
14470.31,-127.93
14491.85,-122.30
14513.38,-121.13
14534.91,-121.05
14556.45,-122.07
14577.98,-126.99
14599.51,-126.21
14621.04,-121.21
14642.58,-120.19
14664.11,-120.82
14685.64,-122.46
14707.18,-126.60
14728.71,-126.68
14750.24,-121.52
14771.78,-119.80
14793.31,-121.28
14814.84,-122.77
14836.38,-127.46
14857.91,-128.55
14879.44,-122.07
14900.98,-118.39
14922.51,-120.03
14944.04,-120.11
14965.58,-125.11
14987.11,-127.22
15008.64,-121.68
15030.18,-119.49
15051.71,-119.25
15073.24,-120.35
15094.78,-124.33
15116.31,-127.46
15137.84,-123.32
15159.38,-119.72
15180.91,-120.89
15202.44,-120.97
15223.97,-124.96
15245.51,-130.35
15267.04,-124.41
15288.57,-119.49
15310.11,-120.11
15331.64,-120.27
15353.17,-123.47
15374.71,-128.79
15396.24,-124.02
15417.77,-119.72
15439.31,-119.49
15460.84,-120.27
15482.37,-123.24
15503.91,-127.30
15525.44,-124.96
15546.97,-121.13
15568.51,-121.60
15590.04,-121.83
15611.57,-123.39
15633.11,-129.80
15654.64,-126.52
15676.17,-120.89
15697.71,-120.58
15719.24,-121.36
15740.77,-122.46
15762.30,-127.85
15783.84,-126.60
15805.37,-121.83
15826.90,-121.36
15848.44,-122.53
15869.97,-123.71
15891.50,-127.85
15913.04,-126.60
15934.57,-122.22
15956.10,-122.07
15977.64,-124.25
15999.17,-123.63
16020.70,-129.96
16042.24,-127.85
16063.77,-121.60
16085.30,-119.88
16106.84,-121.28
16128.37,-121.99
16149.90,-126.60
16171.44,-125.35
16192.97,-120.89
16214.50,-119.88
16236.04,-120.89
16257.57,-122.22
16279.10,-126.29
16300.63,-124.96
16322.17,-120.66
16343.70,-119.57
16365.23,-121.28
16386.77,-122.14
16408.30,-129.49
16429.83,-127.85
16451.37,-121.52
16472.90,-119.41
16494.43,-119.33
16515.97,-120.58
16537.50,-125.35
16559.03,-125.97
16580.57,-121.60
16602.10,-120.82
16623.63,-120.19
16645.17,-120.97
16666.70,-125.35
16688.23,-126.05
16709.77,-121.75
16731.30,-120.66
16752.83,-121.13
16774.37,-121.99
16795.90,-126.75
16817.43,-130.74
16838.96,-122.69
16860.50,-120.27
16882.03,-119.33
16903.56,-120.82
16925.10,-125.11
16946.63,-126.68
16968.16,-122.30
16989.70,-121.68
17011.23,-119.96
17032.76,-120.35
17054.30,-124.33
17075.83,-127.77
17097.36,-123.08
17118.90,-121.99
17140.43,-121.60
17161.96,-121.36
17183.50,-124.41
17205.03,-129.41
17226.56,-124.49
17248.10,-121.60
17269.63,-120.66
17291.16,-121.36
17312.70,-123.39
17334.23,-126.05
17355.76,-122.85
17377.29,-120.97
17398.83,-120.11
17420.36,-120.82
17441.89,-123.86
17463.43,-127.54
17484.96,-123.86
17506.49,-121.91
17528.03,-120.82
17549.56,-121.36
17571.09,-123.71
17592.63,-129.18
17614.16,-125.66
17635.69,-121.75
17657.23,-120.58
17678.76,-120.19
17700.29,-121.60
17721.83,-125.04
17743.36,-123.94
17764.89,-121.21
17786.43,-120.58
17807.96,-121.21
17829.49,-122.22
17851.03,-125.66
17872.56,-123.39
17894.09,-121.05
17915.63,-120.50
17937.16,-121.28
17958.69,-122.53
17980.22,-127.46
18001.76,-127.07
18023.29,-122.22
18044.82,-120.50
18066.36,-120.35
18087.89,-121.13
18109.42,-124.80
18130.96,-124.88
18152.49,-121.83
18174.02,-121.28
18195.56,-121.13
18217.09,-121.05
18238.62,-123.94
18260.16,-123.86
18281.69,-121.68
18303.22,-121.28
18324.76,-122.14
18346.29,-122.77
18367.82,-126.91
18389.36,-126.91
18410.89,-122.14
18432.42,-120.89
18453.96,-120.50
18475.49,-121.28
18497.02,-124.88
18518.55,-126.13
18540.09,-122.69
18561.62,-121.52
18583.15,-121.21
18604.69,-121.75
18626.22,-124.88
18647.75,-125.27
18669.29,-122.46
18690.82,-122.22
18712.35,-122.07
18733.89,-122.61
18755.42,-125.89
18776.95,-127.93
18798.49,-123.32
18820.02,-121.36
18841.55,-121.13
18863.09,-122.30
18884.62,-125.97
18906.15,-128.16
18927.69,-124.02
18949.22,-121.83
18970.75,-121.13
18992.29,-122.07
19013.82,-124.96
19035.35,-127.30
19056.88,-124.72
19078.42,-123.47
19099.95,-122.30
19121.48,-122.77
19143.02,-125.11
19164.55,-129.72
19186.08,-125.58
19207.62,-123.00
19229.15,-122.53
19250.68,-123.00
19272.22,-124.25
19293.75,-127.22
19315.28,-125.97
19336.82,-123.08
19358.35,-121.99
19379.88,-123.08
19401.42,-124.10
19422.95,-126.75
19444.48,-125.43
19466.02,-124.57
19487.55,-123.39
19509.08,-123.86
19530.62,-125.27
19552.15,-129.10
19573.68,-126.99
19595.21,-123.94
19616.75,-123.08
19638.28,-122.93
19659.81,-123.32
19681.35,-126.13
19702.88,-126.52
19724.41,-123.71
19745.95,-123.32
19767.48,-123.24
19789.01,-122.85
19810.55,-124.96
19832.08,-124.96
19853.61,-123.47
19875.15,-123.24
19896.68,-124.18
19918.21,-124.88
19939.75,-126.83
19961.28,-126.83
19982.81,-123.86
20004.35,-122.46
20025.88,-122.22
20047.41,-122.77
20068.95,-125.74
20090.48,-126.60
20112.01,-123.71
20133.54,-123.08
20155.08,-122.53
20176.61,-122.93
20198.14,-125.58
20219.68,-126.29
20241.21,-124.57
20262.74,-124.02
20284.28,-123.94
20305.81,-124.25
20327.34,-126.36
20348.88,-127.22
20370.41,-124.72
20391.94,-123.47
20413.48,-122.69
20435.01,-123.16
20456.54,-125.66
20478.08,-126.52
20499.61,-123.71
20521.14,-122.53
20542.68,-121.91
20564.21,-122.46
20585.74,-124.57
20607.28,-126.21
20628.81,-125.11
20650.34,-124.25
20671.88,-123.71
20693.41,-123.79
20714.94,-124.72
20736.47,-126.36
20758.01,-124.64
20779.54,-123.24
20801.07,-122.77
20822.61,-123.24
20844.14,-124.80
20865.67,-126.52
20887.21,-125.11
20908.74,-123.71
20930.27,-123.32
20951.81,-124.18
20973.34,-125.27
20994.87,-126.91
21016.41,-125.97
21037.94,-124.49
21059.47,-124.10
21081.01,-125.04
21102.54,-125.89
21124.07,-127.77
21145.61,-127.38
21167.14,-125.19
21188.67,-124.41
21210.21,-124.88
21231.74,-125.35
21253.27,-126.75
21274.80,-124.88
21296.34,-122.53
21317.87,-122.46
21339.40,-123.08
21360.94,-123.32
21382.47,-124.96
21404.00,-124.96
21425.54,-124.02
21447.07,-123.71
21468.60,-124.72
21490.14,-125.11
21511.67,-125.19
21533.20,-123.86
21554.74,-121.75
21576.27,-120.19
21597.80,-120.50
21619.34,-121.28
21640.87,-124.25
21662.40,-125.58
21683.94,-124.10
21705.47,-124.02
21727.00,-122.77
21748.54,-122.22
21770.07,-123.39
21791.60,-124.41
21813.13,-123.16
21834.67,-121.68
21856.20,-122.46
21877.73,-121.52
21899.27,-120.89
21920.80,-120.66
21942.33,-118.55
21963.87,-117.77
21985.40,-117.53
22006.93,-118.55
22028.47,-121.21
22050.00,-124.72
